Voltage [V]	Current [A]
-2.000000E-1	-3.855150E-4
-1.950000E-1	-3.674930E-4
-1.900000E-1	-3.552130E-4
-1.850000E-1	-3.444790E-4
-1.800000E-1	-3.308530E-4
-1.750000E-1	-3.219880E-4
-1.700000E-1	-3.075410E-4
-1.650000E-1	-2.989250E-4
-1.600000E-1	-2.906440E-4
-1.550000E-1	-2.832390E-4
-1.500000E-1	-2.741350E-4
-1.450000E-1	-2.651980E-4
-1.400000E-1	-2.550560E-4
-1.350000E-1	-2.474490E-4
-1.300000E-1	-2.384160E-4
-1.250000E-1	-2.320390E-4
-1.200000E-1	-2.227800E-4
-1.150000E-1	-2.166340E-4
-1.100000E-1	-2.082220E-4
-1.050000E-1	-1.995840E-4
-1.000000E-1	-1.913880E-4
-9.500001E-2	-1.826990E-4
-9.000000E-2	-1.740400E-4
-8.500001E-2	-1.662600E-4
-8.000001E-2	-1.573700E-4
-7.500000E-2	-1.494700E-4
-7.000001E-2	-1.409170E-4
-6.500001E-2	-1.316800E-4
-6.000000E-2	-1.212890E-4
-5.500001E-2	-1.128680E-4
-5.000001E-2	-1.031180E-4
-4.500000E-2	-9.401410E-5
-4.000001E-2	-8.368170E-5
-3.500001E-2	-7.430730E-5
-3.000000E-2	-6.395890E-5
-2.500001E-2	-5.423750E-5
-2.000001E-2	-4.358120E-5
-1.500000E-2	-3.303500E-5
-1.000001E-2	-2.202610E-5
-5.000010E-3	-1.110790E-5
-1.490116E-8	3.487220E-8
4.999995E-3	1.123850E-5
9.999990E-3	2.255280E-5
1.499999E-2	3.398530E-5
2.000000E-2	4.547270E-5
2.499999E-2	5.691890E-5
2.999999E-2	6.852410E-5
3.500000E-2	8.033440E-5
3.999999E-2	9.192320E-5
4.499999E-2	1.036330E-4
5.000000E-2	1.155760E-4
5.499999E-2	1.271550E-4
5.999999E-2	1.392150E-4
6.499998E-2	1.509680E-4
6.999998E-2	1.629170E-4
7.500000E-2	1.749840E-4
8.000000E-2	1.868610E-4
8.499999E-2	1.987860E-4
8.999999E-2	2.106630E-4
9.499998E-2	2.230980E-4
9.999998E-2	2.356080E-4
1.050000E-1	2.499380E-4
1.100000E-1	2.625400E-4
1.150000E-1	2.747030E-4
1.200000E-1	2.865130E-4
1.250000E-1	2.989740E-4
1.300000E-1	3.116100E-4
1.350000E-1	3.248740E-4
1.400000E-1	3.371540E-4
1.450000E-1	3.494930E-4
1.500000E-1	3.617870E-4
1.550000E-1	3.743140E-4
1.600000E-1	3.873410E-4
1.650000E-1	3.997400E-4
1.700000E-1	4.117960E-4
1.750000E-1	4.243510E-4
1.800000E-1	4.368530E-4
1.850000E-1	4.499920E-4
1.900000E-1	4.625750E-4
1.950000E-1	4.753730E-4
2.000000E-1	4.882280E-4
2.050000E-1	5.009140E-4
2.100000E-1	5.129170E-4
2.150000E-1	5.256610E-4
2.200000E-1	5.386190E-4
2.250000E-1	5.514550E-4
2.300000E-1	5.648510E-4
2.350000E-1	5.822100E-4
2.400000E-1	5.951920E-4
2.450000E-1	6.082040E-4
2.500000E-1	6.211270E-4
2.550000E-1	6.340510E-4
2.600000E-1	6.475660E-4
2.650000E-1	6.599590E-4
2.700000E-1	6.726830E-4
2.750000E-1	6.848720E-4
2.800000E-1	6.984210E-4
2.850000E-1	7.111250E-4
2.900000E-1	7.242340E-4
2.950000E-1	7.369830E-4
3.000000E-1	7.502590E-4
3.050000E-1	7.633130E-4
3.100000E-1	7.758850E-4
3.150000E-1	7.887350E-4
3.200000E-1	8.027570E-4
3.250000E-1	8.154980E-4
3.300000E-1	8.288400E-4
3.350000E-1	8.407300E-4
3.400000E-1	8.546970E-4
3.450000E-1	8.669560E-4
3.500000E-1	8.811500E-4
3.550000E-1	8.935730E-4
3.600000E-1	9.065340E-4
3.650000E-1	9.201250E-4
3.700000E-1	9.317760E-4
3.750000E-1	9.453670E-4
3.800000E-1	9.582940E-4
3.850000E-1	9.722340E-4
3.900000E-1	9.848970E-4
3.950000E-1	9.983360E-4
4.000000E-1	1.013590E-3
4.050000E-1	1.026600E-3
4.100000E-1	1.038800E-3
4.150000E-1	1.052030E-3
4.200000E-1	1.064490E-3
4.250000E-1	1.078230E-3
4.300000E-1	1.091030E-3
4.350000E-1	1.103250E-3
4.400000E-1	1.117100E-3
4.450000E-1	1.130680E-3
4.500000E-1	1.144890E-3
4.550000E-1	1.156010E-3
4.600000E-1	1.171050E-3
4.650000E-1	1.182420E-3
4.700000E-1	1.195470E-3
4.750000E-1	1.209090E-3
4.800000E-1	1.222400E-3
4.850000E-1	1.235760E-3
4.900000E-1	1.248400E-3
4.950000E-1	1.261980E-3
5.000000E-1	1.274870E-3
5.050000E-1	1.287170E-3
5.100000E-1	1.300560E-3
5.150000E-1	1.314780E-3
5.200000E-1	1.327790E-3
5.250000E-1	1.339760E-3
5.300000E-1	1.352900E-3
5.350000E-1	1.365820E-3
5.400000E-1	1.378440E-3
5.450000E-1	1.392130E-3
5.500000E-1	1.405100E-3
5.550000E-1	1.418700E-3
5.600000E-1	1.430610E-3
5.650000E-1	1.442980E-3
5.700000E-1	1.454450E-3
5.750000E-1	1.469640E-3
5.800000E-1	1.481790E-3
5.850000E-1	1.493740E-3
5.900000E-1	1.504710E-3
5.950000E-1	1.518640E-3
6.000000E-1	1.531980E-3
6.050000E-1	1.544880E-3
6.100000E-1	1.558670E-3
6.150000E-1	1.572290E-3
6.200000E-1	1.720800E-3
6.250000E-1	1.734850E-3
6.300000E-1	1.747410E-3
6.350000E-1	1.761780E-3
6.400000E-1	1.775650E-3
6.450000E-1	1.789720E-3
6.500000E-1	1.802430E-3
6.550000E-1	1.817180E-3
6.600000E-1	1.830960E-3
6.650000E-1	1.844580E-3
6.700000E-1	1.855740E-3
6.750000E-1	1.869670E-3
6.800000E-1	1.882950E-3
6.850000E-1	1.896480E-3
6.900000E-1	1.910970E-3
6.950000E-1	1.922880E-3
7.000000E-1	1.937040E-3
7.050000E-1	1.948320E-3
7.100000E-1	1.961010E-3
7.150000E-1	1.977160E-3
7.200000E-1	1.989110E-3
7.250000E-1	2.005230E-3
7.300000E-1	2.015310E-3
7.350000E-1	2.028030E-3
7.400000E-1	2.054780E-3
7.450000E-1	2.067260E-3
7.500000E-1	2.077140E-3
7.550000E-1	2.090490E-3
7.600000E-1	2.102210E-3
7.650000E-1	2.115960E-3
7.700000E-1	2.127930E-3
7.750000E-1	2.136390E-3
7.800000E-1	2.156130E-3
7.850000E-1	2.169220E-3
7.900000E-1	2.182990E-3
7.950000E-1	2.196210E-3
8.000000E-1	2.213570E-3
