Voltage [V]	Current [A]
-2.000000E-1	-4.719030E-5
-1.950000E-1	-4.557990E-5
-1.900000E-1	-4.411220E-5
-1.850000E-1	-4.264670E-5
-1.800000E-1	-4.126130E-5
-1.750000E-1	-3.980080E-5
-1.700000E-1	-3.842140E-5
-1.650000E-1	-3.705930E-5
-1.600000E-1	-3.565760E-5
-1.550000E-1	-3.431470E-5
-1.500000E-1	-3.299490E-5
-1.450000E-1	-3.168200E-5
-1.400000E-1	-3.038990E-5
-1.350000E-1	-2.915150E-5
-1.300000E-1	-2.787970E-5
-1.250000E-1	-2.661330E-5
-1.200000E-1	-2.542960E-5
-1.150000E-1	-2.427360E-5
-1.100000E-1	-2.313180E-5
-1.050000E-1	-2.205150E-5
-1.000000E-1	-2.097500E-5
-9.500001E-2	-1.994110E-5
-9.000000E-2	-1.896240E-5
-8.500001E-2	-1.798370E-5
-8.000001E-2	-1.704990E-5
-7.500000E-2	-1.614170E-5
-7.000001E-2	-1.524400E-5
-6.500001E-2	-1.439090E-5
-6.000000E-2	-1.357980E-5
-5.500001E-2	-1.278310E-5
-5.000001E-2	-1.200850E-5
-4.500000E-2	-1.130100E-5
-4.000001E-2	-1.060910E-5
-3.500001E-2	-9.933090E-6
-3.000000E-2	-9.279630E-6
-2.500001E-2	-8.661640E-6
-2.000001E-2	-8.068900E-6
-1.500000E-2	-7.492610E-6
-1.000001E-2	-6.945680E-6
-5.000010E-3	-6.420130E-6
-1.490116E-8	-5.912870E-6
4.999995E-3	-5.432640E-6
9.999990E-3	-4.972370E-6
1.499999E-2	-4.515320E-6
2.000000E-2	-4.088840E-6
2.499999E-2	-3.666340E-6
2.999999E-2	-3.262250E-6
3.500000E-2	-2.870360E-6
3.999999E-2	-2.493330E-6
4.499999E-2	-2.119400E-6
5.000000E-2	-1.761530E-6
5.499999E-2	-1.413790E-6
5.999999E-2	-1.067250E-6
6.499998E-2	-7.306780E-7
6.999998E-2	-3.978530E-7
7.500000E-2	-1.144600E-8
8.000000E-2	8.719920E-8
8.499999E-2	5.928180E-7
8.999999E-2	9.158120E-7
9.499998E-2	1.252950E-6
9.999998E-2	1.577660E-6
1.050000E-1	1.907440E-6
1.100000E-1	2.246430E-6
1.150000E-1	2.588950E-6
1.200000E-1	2.927600E-6
1.250000E-1	3.294120E-6
1.300000E-1	3.655900E-6
1.350000E-1	4.032820E-6
1.400000E-1	4.404190E-6
1.450000E-1	4.765230E-6
1.500000E-1	5.161800E-6
1.550000E-1	5.580810E-6
1.600000E-1	5.978500E-6
1.650000E-1	6.400480E-6
1.700000E-1	6.864940E-6
1.750000E-1	7.285240E-6
1.800000E-1	7.698310E-6
1.850000E-1	8.168370E-6
1.900000E-1	8.644610E-6
1.950000E-1	9.145360E-6
2.000000E-1	9.669590E-6
2.050000E-1	1.021220E-5
2.100000E-1	1.074060E-5
2.150000E-1	1.130700E-5
2.200000E-1	1.188250E-5
2.250000E-1	1.248040E-5
2.300000E-1	1.305450E-5
2.350000E-1	1.364850E-5
2.400000E-1	1.429490E-5
2.450000E-1	1.495380E-5
2.500000E-1	1.561060E-5
2.550000E-1	1.628280E-5
2.600000E-1	1.697780E-5
2.650000E-1	1.771650E-5
2.700000E-1	1.851390E-5
2.750000E-1	1.928460E-5
2.800000E-1	2.011490E-5
2.850000E-1	2.090580E-5
2.900000E-1	2.171030E-5
2.950000E-1	2.244640E-5
3.000000E-1	2.335660E-5
3.050000E-1	2.431690E-5
3.100000E-1	2.525880E-5
3.150000E-1	2.625310E-5
3.200000E-1	2.714630E-5
3.250000E-1	2.795120E-5
3.300000E-1	3.034450E-5
3.350000E-1	2.985340E-5
3.400000E-1	3.084100E-5
3.450000E-1	3.179890E-5
3.500000E-1	3.312070E-5
3.550000E-1	3.402430E-5
3.600000E-1	3.520230E-5
3.650000E-1	3.978710E-5
3.700000E-1	4.319240E-5
3.750000E-1	3.859450E-5
3.800000E-1	3.993620E-5
3.850000E-1	4.153360E-5
3.900000E-1	3.359410E-4
3.950000E-1	3.255710E-4
4.000000E-1	3.211900E-4
4.050000E-1	3.140260E-4
4.100000E-1	3.209220E-4
4.150000E-1	3.197480E-4
4.200000E-1	3.230320E-4
4.250000E-1	3.193200E-4
4.300000E-1	3.242730E-4
4.350000E-1	3.195370E-4
4.400000E-1	3.349360E-4
4.450000E-1	3.220900E-4
4.500000E-1	3.243670E-4
4.550000E-1	3.228760E-4
4.600000E-1	3.190220E-4
4.650000E-1	3.594110E-4
4.700000E-1	3.094720E-4
4.750000E-1	3.016850E-4
4.800000E-1	2.995660E-4
4.850000E-1	3.035430E-4
4.900000E-1	3.016590E-4
4.950000E-1	2.888330E-4
5.000000E-1	3.458850E-4
5.050000E-1	4.396140E-4
5.100000E-1	4.178090E-4
5.150000E-1	3.611540E-4
5.200000E-1	3.791290E-4
5.250000E-1	3.762790E-4
5.300000E-1	3.581270E-4
5.350000E-1	3.683850E-4
5.400000E-1	3.967890E-4
5.450000E-1	1.265760E-3
5.500000E-1	1.277620E-3
5.550000E-1	1.339880E-3
5.600000E-1	1.293390E-3
5.650000E-1	1.297840E-3
5.700000E-1	1.285290E-3
5.750000E-1	1.249840E-3
5.800000E-1	1.268430E-3
5.850000E-1	1.277040E-3
5.900000E-1	1.293050E-3
5.950000E-1	1.295250E-3
6.000000E-1	1.303450E-3
6.050000E-1	1.296960E-3
6.100000E-1	1.341360E-3
6.150000E-1	1.315870E-3
6.200000E-1	1.431870E-3
6.250000E-1	1.564170E-3
6.300000E-1	1.624610E-3
6.350000E-1	1.636650E-3
6.400000E-1	1.636200E-3
6.450000E-1	1.661800E-3
6.500000E-1	1.672820E-3
6.550000E-1	1.675400E-3
6.600000E-1	1.683070E-3
6.650000E-1	1.716170E-3
6.700000E-1	1.780940E-3
6.750000E-1	1.746650E-3
6.800000E-1	1.805280E-3
6.850000E-1	1.818450E-3
6.900000E-1	1.820080E-3
6.950000E-1	1.830850E-3
7.000000E-1	1.868950E-3
7.050000E-1	1.876290E-3
7.100000E-1	1.899990E-3
7.150000E-1	1.904130E-3
7.200000E-1	1.946600E-3
7.250000E-1	1.957810E-3
7.300000E-1	1.963870E-3
7.350000E-1	2.011380E-3
7.400000E-1	2.032160E-3
7.450000E-1	2.034740E-3
7.500000E-1	2.044610E-3
7.550000E-1	2.061710E-3
7.600000E-1	2.063800E-3
7.650000E-1	2.079050E-3
7.700000E-1	2.194760E-3
7.750000E-1	2.325660E-3
7.800000E-1	2.341970E-3
7.850000E-1	2.355140E-3
7.900000E-1	2.150090E-3
7.950000E-1	2.196380E-3
8.000000E-1	2.231170E-3
