Voltage [V]	Current [A]
-2.000000E-1	-4.205930E-4
-1.950000E-1	-4.057640E-4
-1.900000E-1	-3.923160E-4
-1.850000E-1	-3.773400E-4
-1.800000E-1	-3.657560E-4
-1.750000E-1	-3.528200E-4
-1.700000E-1	-3.438050E-4
-1.650000E-1	-3.345610E-4
-1.600000E-1	-3.252760E-4
-1.550000E-1	-3.156620E-4
-1.500000E-1	-3.040820E-4
-1.450000E-1	-2.914560E-4
-1.400000E-1	-2.828630E-4
-1.350000E-1	-2.739660E-4
-1.300000E-1	-2.656680E-4
-1.250000E-1	-2.544300E-4
-1.200000E-1	-2.456890E-4
-1.150000E-1	-2.350590E-4
-1.100000E-1	-2.264550E-4
-1.050000E-1	-2.186470E-4
-1.000000E-1	-2.074790E-4
-9.500001E-2	-1.988240E-4
-9.000000E-2	-1.892170E-4
-8.500001E-2	-1.805940E-4
-8.000001E-2	-1.698770E-4
-7.500000E-2	-1.611400E-4
-7.000001E-2	-1.511330E-4
-6.500001E-2	-1.410890E-4
-6.000000E-2	-1.314410E-4
-5.500001E-2	-1.210020E-4
-5.000001E-2	-1.127520E-4
-4.500000E-2	-1.026430E-4
-4.000001E-2	-9.221120E-5
-3.500001E-2	-8.179860E-5
-3.000000E-2	-7.111730E-5
-2.500001E-2	-6.046310E-5
-2.000001E-2	-4.936230E-5
-1.500000E-2	-3.798070E-5
-1.000001E-2	-2.667030E-5
-5.000010E-3	-1.525830E-5
-1.490116E-8	-3.752170E-6
4.999995E-3	7.704150E-6
9.999990E-3	1.926100E-5
1.499999E-2	3.105350E-5
2.000000E-2	4.291100E-5
2.499999E-2	5.510740E-5
2.999999E-2	6.692320E-5
3.500000E-2	7.876620E-5
3.999999E-2	9.089950E-5
4.499999E-2	1.030340E-4
5.000000E-2	1.148360E-4
5.499999E-2	1.270670E-4
5.999999E-2	1.393650E-4
6.499998E-2	1.510700E-4
6.999998E-2	1.643380E-4
7.500000E-2	1.772800E-4
8.000000E-2	1.895660E-4
8.499999E-2	2.020040E-4
8.999999E-2	2.146480E-4
9.499998E-2	2.269080E-4
9.999998E-2	2.394060E-4
1.050000E-1	2.521590E-4
1.100000E-1	2.648330E-4
1.150000E-1	2.775430E-4
1.200000E-1	2.904390E-4
1.250000E-1	3.038920E-4
1.300000E-1	3.171590E-4
1.350000E-1	3.300380E-4
1.400000E-1	3.427310E-4
1.450000E-1	3.548720E-4
1.500000E-1	3.680980E-4
1.550000E-1	3.815730E-4
1.600000E-1	3.937600E-4
1.650000E-1	4.076730E-4
1.700000E-1	4.198800E-4
1.750000E-1	4.330400E-4
1.800000E-1	4.461130E-4
1.850000E-1	4.586130E-4
1.900000E-1	4.710780E-4
1.950000E-1	4.849830E-4
2.000000E-1	4.980440E-4
2.050000E-1	5.120510E-4
2.100000E-1	5.252120E-4
2.150000E-1	5.389990E-4
2.200000E-1	5.513760E-4
2.250000E-1	5.644120E-4
2.300000E-1	5.782520E-4
2.350000E-1	5.922450E-4
2.400000E-1	6.055960E-4
2.450000E-1	6.189340E-4
2.500000E-1	6.329100E-4
2.550000E-1	6.453030E-4
2.600000E-1	6.586880E-4
2.650000E-1	6.729530E-4
2.700000E-1	6.859190E-4
2.750000E-1	6.991690E-4
2.800000E-1	7.123220E-4
2.850000E-1	7.274720E-4
2.900000E-1	7.400150E-4
2.950000E-1	7.537140E-4
3.000000E-1	7.663810E-4
3.050000E-1	7.802090E-4
3.100000E-1	7.924530E-4
3.150000E-1	8.058110E-4
3.200000E-1	8.199000E-4
3.250000E-1	8.344160E-4
3.300000E-1	8.488050E-4
3.350000E-1	8.618800E-4
3.400000E-1	8.758270E-4
3.450000E-1	8.885020E-4
3.500000E-1	9.021920E-4
3.550000E-1	9.174950E-4
3.600000E-1	9.289000E-4
3.650000E-1	9.431140E-4
3.700000E-1	9.552940E-4
3.750000E-1	9.698900E-4
3.800000E-1	9.837570E-4
3.850000E-1	9.969400E-4
3.900000E-1	1.012470E-3
3.950000E-1	1.025220E-3
4.000000E-1	1.038680E-3
4.050000E-1	1.053380E-3
4.100000E-1	1.066980E-3
4.150000E-1	1.081000E-3
4.200000E-1	1.087750E-3
4.250000E-1	1.100210E-3
4.300000E-1	1.113320E-3
4.350000E-1	1.127230E-3
4.400000E-1	1.139850E-3
4.450000E-1	1.020980E-3
4.500000E-1	9.371250E-4
4.550000E-1	9.494170E-4
4.600000E-1	9.593450E-4
4.650000E-1	9.677670E-4
4.700000E-1	9.783160E-4
4.750000E-1	9.905230E-4
4.800000E-1	9.994810E-4
4.850000E-1	1.033450E-3
4.900000E-1	1.053450E-3
4.950000E-1	1.066560E-3
5.000000E-1	1.080390E-3
5.050000E-1	1.092300E-3
5.100000E-1	1.101010E-3
5.150000E-1	1.107240E-3
5.200000E-1	1.094440E-3
5.250000E-1	1.103100E-3
5.300000E-1	1.110480E-3
5.350000E-1	1.126850E-3
5.400000E-1	1.152370E-3
5.450000E-1	1.151460E-3
5.500000E-1	1.165010E-3
5.550000E-1	1.265010E-3
5.600000E-1	1.246100E-3
5.650000E-1	1.247860E-3
5.700000E-1	1.279120E-3
5.750000E-1	1.276780E-3
5.800000E-1	1.292420E-3
5.850000E-1	1.310440E-3
5.900000E-1	1.336660E-3
5.950000E-1	1.369380E-3
6.000000E-1	1.371900E-3
6.050000E-1	1.376460E-3
6.100000E-1	1.385970E-3
6.150000E-1	1.423730E-3
6.200000E-1	1.417680E-3
6.250000E-1	1.439670E-3
6.300000E-1	1.474230E-3
6.350000E-1	1.491900E-3
6.400000E-1	1.500220E-3
6.450000E-1	1.550100E-3
6.500000E-1	1.568190E-3
6.550000E-1	1.592990E-3
6.600000E-1	1.638460E-3
6.650000E-1	1.665540E-3
6.700000E-1	1.690450E-3
6.750000E-1	1.695480E-3
6.800000E-1	1.722650E-3
6.850000E-1	1.733290E-3
6.900000E-1	1.733980E-3
6.950000E-1	1.756630E-3
7.000000E-1	1.794780E-3
7.050000E-1	1.842170E-3
7.100000E-1	1.871630E-3
7.150000E-1	1.910420E-3
7.200000E-1	1.934030E-3
7.250000E-1	1.958020E-3
7.300000E-1	1.952550E-3
7.350000E-1	1.975560E-3
7.400000E-1	1.962130E-3
7.450000E-1	2.028520E-3
7.500000E-1	2.453760E-3
7.550000E-1	2.446950E-3
7.600000E-1	2.458060E-3
7.650000E-1	2.470850E-3
7.700000E-1	2.500380E-3
7.750000E-1	2.514010E-3
7.800000E-1	2.528380E-3
7.850000E-1	2.536640E-3
7.900000E-1	2.541350E-3
7.950000E-1	2.566980E-3
8.000000E-1	2.583480E-3
