Voltage [V]	Current [A]
-2.000000E-1	-3.074410E-4
-1.950000E-1	-1.065890E-5
-1.900000E-1	-1.052700E-5
-1.850000E-1	-1.037470E-5
-1.800000E-1	-1.024290E-5
-1.750000E-1	-1.008080E-5
-1.700000E-1	-9.947960E-6
-1.650000E-1	-9.816490E-6
-1.600000E-1	-9.659860E-6
-1.550000E-1	-9.511750E-6
-1.500000E-1	-9.374170E-6
-1.450000E-1	-9.225530E-6
-1.400000E-1	-9.075380E-6
-1.350000E-1	-8.925070E-6
-1.300000E-1	-8.771180E-6
-1.250000E-1	-8.617530E-6
-1.200000E-1	-8.458710E-6
-1.150000E-1	-8.299000E-6
-1.100000E-1	-8.141950E-6
-1.050000E-1	-7.980830E-6
-1.000000E-1	-7.817640E-6
-9.500001E-2	-7.657990E-6
-9.000000E-2	-7.499130E-6
-8.500001E-2	-7.341890E-6
-8.000001E-2	-7.169950E-6
-7.500000E-2	-7.001900E-6
-7.000001E-2	-6.832090E-6
-6.500001E-2	-6.645180E-6
-6.000000E-2	-6.464600E-6
-5.500001E-2	-6.284220E-6
-5.000001E-2	-6.094960E-6
-4.500000E-2	-5.913040E-6
-4.000001E-2	-5.717660E-6
-3.500001E-2	-5.520460E-6
-3.000000E-2	-5.322110E-6
-2.500001E-2	-5.109940E-6
-2.000001E-2	-4.897090E-6
-1.500000E-2	-4.677000E-6
-1.000001E-2	-4.449800E-6
-5.000010E-3	-4.215870E-6
-1.490116E-8	-3.976260E-6
4.999995E-3	-3.729590E-6
9.999990E-3	-3.476380E-6
1.499999E-2	-3.210820E-6
2.000000E-2	-2.936330E-6
2.499999E-2	-2.649880E-6
2.999999E-2	-2.349830E-6
3.500000E-2	-2.042170E-6
3.999999E-2	-1.719030E-6
4.499999E-2	-1.377780E-6
5.000000E-2	-1.029880E-6
5.499999E-2	-6.624840E-7
5.999999E-2	-2.734620E-7
6.499998E-2	1.345090E-7
6.999998E-2	5.607900E-7
7.500000E-2	1.007800E-6
8.000000E-2	1.484030E-6
8.499999E-2	1.980880E-6
8.999999E-2	2.508510E-6
9.499998E-2	3.064860E-6
9.999998E-2	3.660830E-6
1.050000E-1	4.285990E-6
1.100000E-1	4.953670E-6
1.150000E-1	5.644500E-6
1.200000E-1	6.402050E-6
1.250000E-1	7.195310E-6
1.300000E-1	8.026500E-6
1.350000E-1	8.929420E-6
1.400000E-1	9.881180E-6
1.450000E-1	1.079420E-5
1.500000E-1	1.200230E-5
1.550000E-1	1.317290E-5
1.600000E-1	1.444260E-5
1.650000E-1	1.579090E-5
1.700000E-1	1.722800E-5
1.750000E-1	1.873270E-5
1.800000E-1	2.039070E-5
1.850000E-1	2.217690E-5
1.900000E-1	2.407540E-5
1.950000E-1	2.607730E-5
2.000000E-1	2.830290E-5
2.050000E-1	3.065640E-5
2.100000E-1	3.313770E-5
2.150000E-1	3.585350E-5
2.200000E-1	3.872470E-5
2.250000E-1	4.181910E-5
2.300000E-1	4.517300E-5
2.350000E-1	4.874090E-5
2.400000E-1	5.257820E-5
2.450000E-1	5.670100E-5
2.500000E-1	6.109130E-5
2.550000E-1	6.581330E-5
2.600000E-1	7.088010E-5
2.650000E-1	7.632860E-5
2.700000E-1	8.213610E-5
2.750000E-1	8.835420E-5
2.800000E-1	9.504770E-5
2.850000E-1	1.022170E-4
2.900000E-1	1.099370E-4
2.950000E-1	1.181900E-4
3.000000E-1	1.270850E-4
3.050000E-1	1.365870E-4
3.100000E-1	1.467740E-4
3.150000E-1	1.577110E-4
3.200000E-1	1.694630E-4
3.250000E-1	1.821020E-4
3.300000E-1	1.957030E-4
3.350000E-1	2.103760E-4
3.400000E-1	2.262050E-4
3.450000E-1	2.432300E-4
3.500000E-1	2.616780E-4
3.550000E-1	2.815590E-4
3.600000E-1	3.030470E-4
3.650000E-1	3.264270E-4
3.700000E-1	3.517590E-4
3.750000E-1	3.792620E-4
3.800000E-1	4.091610E-4
3.850000E-1	4.417570E-4
3.900000E-1	4.774150E-4
3.950000E-1	5.165100E-4
4.000000E-1	5.593780E-4
4.050000E-1	6.066500E-4
4.100000E-1	6.587800E-4
4.150000E-1	7.165250E-4
4.200000E-1	7.803910E-4
4.250000E-1	8.515790E-4
4.300000E-1	9.307980E-4
4.350000E-1	1.020160E-3
4.400000E-1	1.119610E-3
4.450000E-1	1.231550E-3
4.500000E-1	1.357380E-3
4.550000E-1	1.500190E-3
4.600000E-1	1.662230E-3
4.650000E-1	1.846400E-3
4.700000E-1	2.056320E-3
4.750000E-1	2.295700E-3
4.800000E-1	2.569610E-3
4.850000E-1	2.883010E-3
4.900000E-1	3.241920E-3
4.950000E-1	3.653260E-3
5.000000E-1	4.124190E-3
5.050000E-1	4.663740E-3
5.100000E-1	5.279280E-3
5.150000E-1	5.979670E-3
5.200000E-1	6.777570E-3
5.250000E-1	7.682550E-3
5.300000E-1	8.704420E-3
5.350000E-1	9.851410E-3
5.400000E-1	1.113560E-2
5.450000E-1	1.256220E-2
5.500000E-1	1.414090E-2
5.550000E-1	1.587540E-2
5.600000E-1	1.777270E-2
5.650000E-1	1.983130E-2
5.700000E-1	2.205500E-2
5.750000E-1	2.444460E-2
5.800000E-1	2.698390E-2
5.850000E-1	2.969380E-2
5.900000E-1	3.255570E-2
5.950000E-1	3.556940E-2
6.000000E-1	3.872330E-2
6.050000E-1	4.201850E-2
6.100000E-1	4.544190E-2
6.150000E-1	4.899160E-2
6.200000E-1	5.265980E-2
6.250000E-1	5.643780E-2
6.300000E-1	6.032640E-2
6.350000E-1	6.431130E-2
6.400000E-1	6.839310E-2
6.450000E-1	7.255020E-2
6.500000E-1	7.680630E-2
6.550000E-1	8.113880E-2
6.600000E-1	8.555010E-2
6.650000E-1	9.003250E-2
6.700000E-1	9.457760E-2
6.750000E-1	9.919310E-2
6.800000E-1	1.035940E-1
6.850000E-1	1.083190E-1
6.900000E-1	1.131100E-1
6.950000E-1	1.179280E-1
7.000000E-1	1.228240E-1
