Voltage [V]	Current [A]
-3.000000E-1	-2.076650E-5
-2.900000E-1	-2.053350E-5
-2.800000E-1	-2.028810E-5
-2.700000E-1	-2.015660E-5
-2.600000E-1	-1.998370E-5
-2.500000E-1	-1.976280E-5
-2.400000E-1	-1.958350E-5
-2.300000E-1	-1.938800E-5
-2.200000E-1	-1.923750E-5
-2.100000E-1	-1.902400E-5
-2.000000E-1	-1.885380E-5
-1.900000E-1	-1.864630E-5
-1.800000E-1	-1.851390E-5
-1.700000E-1	-1.834450E-5
-1.600000E-1	-1.818170E-5
-1.500000E-1	-1.796100E-5
-1.400000E-1	-1.778220E-5
-1.300000E-1	-1.762170E-5
-1.200000E-1	-1.740350E-5
-1.100000E-1	-1.726340E-5
-1.000000E-1	-1.703090E-5
-9.000002E-2	-1.688320E-5
-8.000001E-2	-1.668990E-5
-7.000002E-2	-1.648640E-5
-6.000002E-2	-1.632570E-5
-5.000001E-2	-1.611890E-5
-4.000002E-2	-1.593400E-5
-3.000003E-2	-1.579200E-5
-2.000001E-2	-1.559790E-5
-1.000002E-2	-1.544300E-5
-2.980232E-8	-1.524050E-5
9.999990E-3	-1.504690E-5
1.999998E-2	-1.484770E-5
2.999997E-2	-1.465740E-5
3.999999E-2	-1.448060E-5
4.999998E-2	-1.428410E-5
5.999997E-2	-1.408560E-5
6.999999E-2	-1.390980E-5
7.999998E-2	-1.373070E-5
8.999997E-2	-1.352610E-5
9.999996E-2	-1.334520E-5
1.100000E-1	-1.318810E-5
1.200000E-1	-1.300520E-5
1.300000E-1	-1.283480E-5
1.400000E-1	-1.264360E-5
1.500000E-1	-1.243460E-5
1.600000E-1	-1.223050E-5
1.700000E-1	-1.203310E-5
1.800000E-1	-1.182850E-5
1.900000E-1	-1.164870E-5
2.000000E-1	-1.143950E-5
2.100000E-1	-1.125990E-5
2.200000E-1	-1.106600E-5
2.300000E-1	-1.090040E-5
2.399999E-1	-1.070110E-5
2.500000E-1	-1.052940E-5
2.600000E-1	-1.032160E-5
2.700000E-1	-1.011490E-5
2.800000E-1	-9.912880E-6
2.900000E-1	-9.736400E-6
3.000000E-1	-9.551310E-6
3.100000E-1	-9.315340E-6
3.200000E-1	-9.104470E-6
3.300000E-1	-8.902090E-6
3.400000E-1	-8.691660E-6
3.500000E-1	-8.494370E-6
3.600000E-1	-8.296030E-6
3.699999E-1	-8.106050E-6
3.800000E-1	-7.928000E-6
3.900000E-1	-7.707300E-6
4.000000E-1	-7.490350E-6
4.100000E-1	-7.273650E-6
4.200000E-1	-7.065580E-6
4.299999E-1	-6.853660E-6
4.400000E-1	-6.620700E-6
4.500000E-1	-6.382270E-6
4.600000E-1	-6.173110E-6
4.700000E-1	-5.948850E-6
4.800000E-1	-5.720660E-6
4.899999E-1	-5.505830E-6
4.999999E-1	-5.282620E-6
5.100000E-1	-5.047290E-6
5.200000E-1	-4.811330E-6
5.300000E-1	-4.565650E-6
5.400000E-1	-4.309560E-6
5.500000E-1	-4.056550E-6
5.599999E-1	-3.804000E-6
5.700000E-1	-3.541730E-6
5.800000E-1	-3.286810E-6
5.900000E-1	-3.022190E-6
6.000000E-1	-2.753450E-6
6.100000E-1	-2.466350E-6
6.199999E-1	-2.187620E-6
6.300000E-1	-1.893830E-6
6.400000E-1	-1.601860E-6
6.500000E-1	-1.294820E-6
6.600000E-1	-9.875860E-7
6.700000E-1	-6.693550E-7
6.799999E-1	-3.448740E-7
6.899999E-1	-1.769810E-8
7.000000E-1	3.213570E-7
7.100000E-1	6.654760E-7
7.200000E-1	1.017750E-6
7.300000E-1	1.378780E-6
7.399999E-1	1.746480E-6
7.499999E-1	2.119620E-6
7.599999E-1	2.500310E-6
7.699999E-1	2.884740E-6
7.799999E-1	3.275670E-6
7.900000E-1	3.679170E-6
8.000000E-1	4.089460E-6
8.100000E-1	4.504870E-6
8.200000E-1	4.929450E-6
8.300000E-1	5.360480E-6
8.400000E-1	5.799390E-6
8.500000E-1	6.249090E-6
8.600000E-1	6.711060E-6
8.699999E-1	7.187280E-6
8.799999E-1	7.676690E-6
8.899999E-1	8.177240E-6
8.999999E-1	8.713990E-6
9.099999E-1	9.260770E-6
9.200000E-1	9.823530E-6
9.300000E-1	1.042440E-5
9.400000E-1	1.103060E-5
9.500000E-1	1.167070E-5
9.600000E-1	1.233240E-5
9.700000E-1	1.302480E-5
9.800000E-1	1.375290E-5
9.899999E-1	1.451260E-5
9.999999E-1	1.530520E-5
