Voltage [V]	Current [A]
-3.000000E-1	-3.349870E-6
-2.900000E-1	-3.304900E-6
-2.800000E-1	-3.261030E-6
-2.700000E-1	-3.228960E-6
-2.600000E-1	-3.194330E-6
-2.500000E-1	-3.165280E-6
-2.400000E-1	-3.134870E-6
-2.300000E-1	-3.099640E-6
-2.200000E-1	-3.070930E-6
-2.100000E-1	-3.042010E-6
-2.000000E-1	-3.012170E-6
-1.900000E-1	-2.984130E-6
-1.800000E-1	-2.952030E-6
-1.700000E-1	-2.924870E-6
-1.600000E-1	-2.900390E-6
-1.500000E-1	-2.870660E-6
-1.400000E-1	-2.840650E-6
-1.300000E-1	-2.811980E-6
-1.200000E-1	-2.778600E-6
-1.100000E-1	-2.748020E-6
-1.000000E-1	-2.725120E-6
-9.000002E-2	-2.689890E-6
-8.000001E-2	-2.663480E-6
-7.000002E-2	-2.639090E-6
-6.000002E-2	-2.605290E-6
-5.000001E-2	-2.577070E-6
-4.000002E-2	-2.542870E-6
-3.000003E-2	-2.515650E-6
-2.000001E-2	-2.491740E-6
-1.000002E-2	-2.465500E-6
-2.980232E-8	-2.438980E-6
9.999990E-3	-2.411830E-6
1.999998E-2	-2.378530E-6
2.999997E-2	-2.347870E-6
3.999999E-2	-2.316980E-6
4.999998E-2	-2.287320E-6
5.999997E-2	-2.257670E-6
6.999999E-2	-2.232680E-6
7.999998E-2	-2.208420E-6
8.999997E-2	-2.173490E-6
9.999996E-2	-2.149500E-6
1.100000E-1	-2.117210E-6
1.200000E-1	-2.086220E-6
1.300000E-1	-2.057550E-6
1.400000E-1	-2.025530E-6
1.500000E-1	-1.990750E-6
1.600000E-1	-1.959490E-6
1.700000E-1	-1.925910E-6
1.800000E-1	-1.900910E-6
1.900000E-1	-1.872580E-6
2.000000E-1	-1.841110E-6
2.100000E-1	-1.812770E-6
2.200000E-1	-1.782400E-6
2.300000E-1	-1.751580E-6
2.399999E-1	-1.719250E-6
2.500000E-1	-1.686090E-6
2.600000E-1	-1.653330E-6
2.700000E-1	-1.618500E-6
2.800000E-1	-1.586470E-6
2.900000E-1	-1.553100E-6
3.000000E-1	-1.523820E-6
3.100000E-1	-1.491750E-6
3.200000E-1	-1.455490E-6
3.300000E-1	-1.422650E-6
3.400000E-1	-1.386840E-6
3.500000E-1	-1.351700E-6
3.600000E-1	-1.317320E-6
3.699999E-1	-1.280320E-6
3.800000E-1	-1.242950E-6
3.900000E-1	-1.204000E-6
4.000000E-1	-1.164960E-6
4.100000E-1	-1.125090E-6
4.200000E-1	-1.087780E-6
4.299999E-1	-1.048320E-6
4.400000E-1	-1.005900E-6
4.500000E-1	-9.651750E-7
4.600000E-1	-9.209060E-7
4.700000E-1	-8.739920E-7
4.800000E-1	-8.299660E-7
4.899999E-1	-7.847780E-7
4.999999E-1	-7.356270E-7
5.100000E-1	-6.858040E-7
5.200000E-1	-6.357190E-7
5.300000E-1	-5.812390E-7
5.400000E-1	-5.251840E-7
5.500000E-1	-4.678210E-7
5.599999E-1	-4.096780E-7
5.700000E-1	-3.472860E-7
5.800000E-1	-2.848660E-7
5.900000E-1	-2.193600E-7
6.000000E-1	-1.505970E-7
6.100000E-1	-6.779810E-8
6.199999E-1	-2.652530E-9
6.300000E-1	6.890890E-8
6.400000E-1	1.680160E-7
6.500000E-1	2.483800E-7
6.600000E-1	3.413360E-7
6.700000E-1	4.395120E-7
6.799999E-1	5.424270E-7
6.899999E-1	6.510070E-7
7.000000E-1	7.655410E-7
7.100000E-1	8.860980E-7
7.200000E-1	1.013400E-6
7.300000E-1	1.148240E-6
7.399999E-1	1.290710E-6
7.499999E-1	1.440900E-6
7.599999E-1	1.599650E-6
7.699999E-1	1.767070E-6
7.799999E-1	1.944270E-6
7.900000E-1	2.130480E-6
8.000000E-1	2.327280E-6
8.100000E-1	2.534780E-6
8.200000E-1	2.753540E-6
8.300000E-1	2.985300E-6
8.400000E-1	3.230060E-6
8.500000E-1	3.490050E-6
8.600000E-1	3.764820E-6
8.699999E-1	4.054700E-6
8.799999E-1	4.363210E-6
8.899999E-1	4.689150E-6
8.999999E-1	5.033510E-6
9.099999E-1	5.397460E-6
9.200000E-1	5.781180E-6
9.300000E-1	6.195550E-6
9.400000E-1	6.630930E-6
9.500000E-1	7.091750E-6
9.600000E-1	7.579490E-6
9.700000E-1	8.094510E-6
9.800000E-1	8.636800E-6
9.899999E-1	9.214720E-6
9.999999E-1	9.822590E-6
