Voltage [V]	Current [A]
-3.000000E-1	-6.221510E-6
-2.900000E-1	-6.148130E-6
-2.800000E-1	-6.093200E-6
-2.700000E-1	-6.018310E-6
-2.600000E-1	-5.958510E-6
-2.500000E-1	-5.898530E-6
-2.400000E-1	-5.840840E-6
-2.300000E-1	-5.791160E-6
-2.200000E-1	-5.735880E-6
-2.100000E-1	-5.685140E-6
-2.000000E-1	-5.631760E-6
-1.900000E-1	-5.585880E-6
-1.800000E-1	-5.531010E-6
-1.700000E-1	-5.475560E-6
-1.600000E-1	-5.425450E-6
-1.500000E-1	-5.359010E-6
-1.400000E-1	-5.305580E-6
-1.300000E-1	-5.252610E-6
-1.200000E-1	-5.187820E-6
-1.100000E-1	-5.142540E-6
-1.000000E-1	-5.093340E-6
-9.000002E-2	-5.056650E-6
-8.000001E-2	-4.988060E-6
-7.000002E-2	-4.934500E-6
-6.000002E-2	-4.863230E-6
-5.000001E-2	-4.815220E-6
-4.000002E-2	-4.764550E-6
-3.000003E-2	-4.715570E-6
-2.000001E-2	-4.672950E-6
-1.000002E-2	-4.614240E-6
-2.980232E-8	-4.562550E-6
9.999990E-3	-4.514000E-6
1.999998E-2	-4.457070E-6
2.999997E-2	-4.406290E-6
3.999999E-2	-4.349150E-6
4.999998E-2	-4.295500E-6
5.999997E-2	-4.228960E-6
6.999999E-2	-4.174770E-6
7.999998E-2	-4.123050E-6
8.999997E-2	-4.069710E-6
9.999996E-2	-4.013570E-6
1.100000E-1	-3.960900E-6
1.200000E-1	-3.904550E-6
1.300000E-1	-3.853170E-6
1.400000E-1	-3.798650E-6
1.500000E-1	-3.741740E-6
1.600000E-1	-3.677460E-6
1.700000E-1	-3.622930E-6
1.800000E-1	-3.566740E-6
1.900000E-1	-3.512170E-6
2.000000E-1	-3.456780E-6
2.100000E-1	-3.391290E-6
2.200000E-1	-3.344030E-6
2.300000E-1	-3.289160E-6
2.399999E-1	-3.228770E-6
2.500000E-1	-3.174220E-6
2.600000E-1	-3.114370E-6
2.700000E-1	-3.051040E-6
2.800000E-1	-2.986320E-6
2.900000E-1	-2.920840E-6
3.000000E-1	-2.865410E-6
3.100000E-1	-2.808090E-6
3.200000E-1	-2.748110E-6
3.300000E-1	-2.687650E-6
3.400000E-1	-2.631190E-6
3.500000E-1	-2.569910E-6
3.600000E-1	-2.507780E-6
3.699999E-1	-2.441280E-6
3.800000E-1	-2.369990E-6
3.900000E-1	-2.300210E-6
4.000000E-1	-2.231090E-6
4.100000E-1	-2.161680E-6
4.200000E-1	-2.096180E-6
4.299999E-1	-2.029550E-6
4.400000E-1	-1.961510E-6
4.500000E-1	-1.891760E-6
4.600000E-1	-1.818290E-6
4.700000E-1	-1.741580E-6
4.800000E-1	-1.665880E-6
4.899999E-1	-1.586670E-6
4.999999E-1	-1.505980E-6
5.100000E-1	-1.422930E-6
5.200000E-1	-1.336140E-6
5.300000E-1	-1.250980E-6
5.400000E-1	-1.163410E-6
5.500000E-1	-1.075080E-6
5.599999E-1	-9.832430E-7
5.700000E-1	-8.880280E-7
5.800000E-1	-7.911850E-7
5.900000E-1	-6.911360E-7
6.000000E-1	-5.881640E-7
6.100000E-1	-4.810940E-7
6.199999E-1	-3.678270E-7
6.300000E-1	-2.486060E-7
6.400000E-1	-1.268110E-7
6.500000E-1	1.654030E-10
6.600000E-1	1.308850E-7
6.700000E-1	2.687730E-7
6.799999E-1	4.122320E-7
6.899999E-1	5.623790E-7
7.000000E-1	7.196290E-7
7.100000E-1	8.814050E-7
7.200000E-1	1.050440E-6
7.300000E-1	1.227620E-6
7.399999E-1	1.412040E-6
7.499999E-1	1.604160E-6
7.599999E-1	1.804690E-6
7.699999E-1	2.013030E-6
7.799999E-1	2.230700E-6
7.900000E-1	2.458150E-6
8.000000E-1	2.693930E-6
8.100000E-1	2.939910E-6
8.200000E-1	3.197240E-6
8.300000E-1	3.466120E-6
8.400000E-1	3.746410E-6
8.500000E-1	4.042720E-6
8.600000E-1	4.353480E-6
8.699999E-1	4.678470E-6
8.799999E-1	5.019260E-6
8.899999E-1	5.378300E-6
8.999999E-1	5.752910E-6
9.099999E-1	6.149830E-6
9.200000E-1	6.567570E-6
9.300000E-1	7.008440E-6
9.400000E-1	7.476410E-6
9.500000E-1	7.970270E-6
9.600000E-1	8.492250E-6
9.700000E-1	9.042120E-6
9.800000E-1	9.621130E-6
9.899999E-1	1.024320E-5
9.999999E-1	1.088720E-5
