Voltage [V]	Current [A]
-3.000000E-1	-4.909040E-5
-2.900000E-1	-4.851380E-5
-2.800000E-1	-4.825230E-5
-2.700000E-1	-4.779530E-5
-2.600000E-1	-4.745320E-5
-2.500000E-1	-4.712090E-5
-2.400000E-1	-4.667930E-5
-2.300000E-1	-4.636860E-5
-2.200000E-1	-4.586310E-5
-2.100000E-1	-4.540870E-5
-2.000000E-1	-4.487760E-5
-1.900000E-1	-4.454410E-5
-1.800000E-1	-4.415720E-5
-1.700000E-1	-4.365570E-5
-1.600000E-1	-4.329730E-5
-1.500000E-1	-4.285420E-5
-1.400000E-1	-4.252720E-5
-1.300000E-1	-4.211710E-5
-1.200000E-1	-4.182020E-5
-1.100000E-1	-4.142600E-5
-1.000000E-1	-4.102240E-5
-9.000002E-2	-4.060090E-5
-8.000001E-2	-4.009550E-5
-7.000002E-2	-3.958370E-5
-6.000002E-2	-3.915570E-5
-5.000001E-2	-3.875480E-5
-4.000002E-2	-3.842550E-5
-3.000003E-2	-3.801270E-5
-2.000001E-2	-3.769040E-5
-1.000002E-2	-3.725630E-5
-2.980232E-8	-3.683580E-5
9.999990E-3	-3.635250E-5
1.999998E-2	-3.589240E-5
2.999997E-2	-3.549610E-5
3.999999E-2	-3.504400E-5
4.999998E-2	-3.458800E-5
5.999997E-2	-3.414920E-5
6.999999E-2	-3.374360E-5
7.999998E-2	-3.329650E-5
8.999997E-2	-3.286150E-5
9.999996E-2	-3.245690E-5
1.100000E-1	-3.195940E-5
1.200000E-1	-3.154940E-5
1.300000E-1	-3.109640E-5
1.400000E-1	-3.070430E-5
1.500000E-1	-3.023430E-5
1.600000E-1	-2.985240E-5
1.700000E-1	-2.947480E-5
1.800000E-1	-2.898270E-5
1.900000E-1	-2.850840E-5
2.000000E-1	-2.811890E-5
2.100000E-1	-2.767340E-5
2.200000E-1	-2.720140E-5
2.300000E-1	-2.674650E-5
2.399999E-1	-2.627830E-5
2.500000E-1	-2.589080E-5
2.600000E-1	-2.541460E-5
2.700000E-1	-2.495150E-5
2.800000E-1	-2.449430E-5
2.900000E-1	-2.402340E-5
3.000000E-1	-2.357210E-5
3.100000E-1	-2.311640E-5
3.200000E-1	-2.267610E-5
3.300000E-1	-2.227970E-5
3.400000E-1	-2.183730E-5
3.500000E-1	-2.137340E-5
3.600000E-1	-2.093900E-5
3.699999E-1	-2.042930E-5
3.800000E-1	-1.995720E-5
3.900000E-1	-1.950950E-5
4.000000E-1	-1.901970E-5
4.100000E-1	-1.854950E-5
4.200000E-1	-1.807790E-5
4.299999E-1	-1.761260E-5
4.400000E-1	-1.716680E-5
4.500000E-1	-1.668650E-5
4.600000E-1	-1.620780E-5
4.700000E-1	-1.571960E-5
4.800000E-1	-1.526150E-5
4.899999E-1	-1.477810E-5
4.999999E-1	-1.427740E-5
5.100000E-1	-1.379620E-5
5.200000E-1	-1.329320E-5
5.300000E-1	-1.279360E-5
5.400000E-1	-1.227170E-5
5.500000E-1	-1.175180E-5
5.599999E-1	-1.125450E-5
5.700000E-1	-1.073410E-5
5.800000E-1	-1.020360E-5
5.900000E-1	-9.682980E-6
6.000000E-1	-9.125880E-6
6.100000E-1	-8.585560E-6
6.199999E-1	-8.017260E-6
6.300000E-1	-7.460200E-6
6.400000E-1	-6.888360E-6
6.500000E-1	-6.317680E-6
6.600000E-1	-5.727170E-6
6.700000E-1	-5.126750E-6
6.799999E-1	-4.522080E-6
6.899999E-1	-3.907250E-6
7.000000E-1	-3.275980E-6
7.100000E-1	-2.641440E-6
7.200000E-1	-2.000060E-6
7.300000E-1	-1.345140E-6
7.399999E-1	-6.904330E-7
7.499999E-1	-2.657620E-8
7.599999E-1	6.476570E-7
7.699999E-1	1.326650E-6
7.799999E-1	2.018720E-6
7.900000E-1	2.714500E-6
8.000000E-1	3.415260E-6
8.100000E-1	4.119990E-6
8.200000E-1	4.832890E-6
8.300000E-1	5.550150E-6
8.400000E-1	6.270430E-6
8.500000E-1	7.001520E-6
8.600000E-1	7.749440E-6
8.699999E-1	8.505730E-6
8.799999E-1	9.276750E-6
8.899999E-1	1.004280E-5
8.999999E-1	1.083630E-5
9.099999E-1	1.167080E-5
9.200000E-1	1.252470E-5
9.300000E-1	1.334480E-5
9.400000E-1	1.423120E-5
9.500000E-1	1.514580E-5
9.600000E-1	1.608180E-5
9.700000E-1	1.706820E-5
9.800000E-1	1.809180E-5
9.899999E-1	1.915710E-5
9.999999E-1	2.025220E-5
