Voltage [V]	Current [A]
-3.000000E-1	-3.601970E-6
-2.900000E-1	-3.559960E-6
-2.800000E-1	-3.534170E-6
-2.700000E-1	-3.498010E-6
-2.600000E-1	-3.466510E-6
-2.500000E-1	-3.442290E-6
-2.400000E-1	-3.398300E-6
-2.300000E-1	-3.371980E-6
-2.200000E-1	-3.338030E-6
-2.100000E-1	-3.312480E-6
-2.000000E-1	-3.277830E-6
-1.900000E-1	-3.244660E-6
-1.800000E-1	-3.217640E-6
-1.700000E-1	-3.178890E-6
-1.600000E-1	-3.156150E-6
-1.500000E-1	-3.125970E-6
-1.400000E-1	-3.099580E-6
-1.300000E-1	-3.066930E-6
-1.200000E-1	-3.035160E-6
-1.100000E-1	-3.005270E-6
-1.000000E-1	-2.972470E-6
-9.000002E-2	-2.945130E-6
-8.000001E-2	-2.911260E-6
-7.000002E-2	-2.878720E-6
-6.000002E-2	-2.850020E-6
-5.000001E-2	-2.817950E-6
-4.000002E-2	-2.792660E-6
-3.000003E-2	-2.764110E-6
-2.000001E-2	-2.734830E-6
-1.000002E-2	-2.697760E-6
-2.980232E-8	-2.667610E-6
9.999990E-3	-2.639910E-6
1.999998E-2	-2.603370E-6
2.999997E-2	-2.574760E-6
3.999999E-2	-2.538360E-6
4.999998E-2	-2.511300E-6
5.999997E-2	-2.472050E-6
6.999999E-2	-2.452030E-6
7.999998E-2	-2.419290E-6
8.999997E-2	-2.389920E-6
9.999996E-2	-2.361240E-6
1.100000E-1	-2.316350E-6
1.200000E-1	-2.284180E-6
1.300000E-1	-2.245750E-6
1.400000E-1	-2.214730E-6
1.500000E-1	-2.186560E-6
1.600000E-1	-2.153400E-6
1.700000E-1	-2.130270E-6
1.800000E-1	-2.092950E-6
1.900000E-1	-2.061590E-6
2.000000E-1	-2.027930E-6
2.100000E-1	-1.991130E-6
2.200000E-1	-1.955780E-6
2.300000E-1	-1.919890E-6
2.399999E-1	-1.892910E-6
2.500000E-1	-1.856370E-6
2.600000E-1	-1.827640E-6
2.700000E-1	-1.793710E-6
2.800000E-1	-1.758840E-6
2.900000E-1	-1.724440E-6
3.000000E-1	-1.686680E-6
3.100000E-1	-1.654320E-6
3.200000E-1	-1.615010E-6
3.300000E-1	-1.581950E-6
3.400000E-1	-1.544290E-6
3.500000E-1	-1.508810E-6
3.600000E-1	-1.472940E-6
3.699999E-1	-1.433360E-6
3.800000E-1	-1.400300E-6
3.900000E-1	-1.361060E-6
4.000000E-1	-1.323210E-6
4.100000E-1	-1.284930E-6
4.200000E-1	-1.245810E-6
4.299999E-1	-1.208080E-6
4.400000E-1	-1.165850E-6
4.500000E-1	-1.128330E-6
4.600000E-1	-1.084940E-6
4.700000E-1	-1.044650E-6
4.800000E-1	-1.002940E-6
4.899999E-1	-9.571050E-7
4.999999E-1	-9.142780E-7
5.100000E-1	-8.672630E-7
5.200000E-1	-8.187090E-7
5.300000E-1	-7.713770E-7
5.400000E-1	-7.195480E-7
5.500000E-1	-6.665110E-7
5.599999E-1	-6.121960E-7
5.700000E-1	-5.564270E-7
5.800000E-1	-4.987610E-7
5.900000E-1	-4.380530E-7
6.000000E-1	-3.766600E-7
6.100000E-1	-3.106990E-7
6.199999E-1	-2.425540E-7
6.300000E-1	-1.698380E-7
6.400000E-1	-7.491210E-8
6.500000E-1	-1.148370E-8
6.600000E-1	6.830530E-8
6.700000E-1	1.647840E-7
6.799999E-1	2.593210E-7
6.899999E-1	3.607910E-7
7.000000E-1	4.677900E-7
7.100000E-1	5.814520E-7
7.200000E-1	7.018540E-7
7.300000E-1	8.295220E-7
7.399999E-1	9.646880E-7
7.499999E-1	1.107950E-6
7.599999E-1	1.259800E-6
7.699999E-1	1.420150E-6
7.799999E-1	1.590530E-6
7.900000E-1	1.769210E-6
8.000000E-1	1.960200E-6
8.100000E-1	2.161090E-6
8.200000E-1	2.375650E-6
8.300000E-1	2.602460E-6
8.400000E-1	2.840760E-6
8.500000E-1	3.094620E-6
8.600000E-1	3.362170E-6
8.699999E-1	3.647720E-6
8.799999E-1	3.949130E-6
8.899999E-1	4.268420E-6
8.999999E-1	4.606010E-6
9.099999E-1	4.963630E-6
9.200000E-1	5.343970E-6
9.300000E-1	5.749570E-6
9.400000E-1	6.172530E-6
9.500000E-1	6.623350E-6
9.600000E-1	7.099710E-6
9.700000E-1	7.600250E-6
9.800000E-1	8.134010E-6
9.899999E-1	8.693360E-6
9.999999E-1	9.286540E-6
