Voltage [V]	Current [A]
-3.000000E-1	-1.232320E-5
-2.900000E-1	-1.221360E-5
-2.800000E-1	-1.209710E-5
-2.700000E-1	-1.200010E-5
-2.600000E-1	-1.186550E-5
-2.500000E-1	-1.177760E-5
-2.400000E-1	-1.167230E-5
-2.300000E-1	-1.156700E-5
-2.200000E-1	-1.147510E-5
-2.100000E-1	-1.133460E-5
-2.000000E-1	-1.126220E-5
-1.900000E-1	-1.113260E-5
-1.800000E-1	-1.102710E-5
-1.700000E-1	-1.092280E-5
-1.600000E-1	-1.083170E-5
-1.500000E-1	-1.073320E-5
-1.400000E-1	-1.059850E-5
-1.300000E-1	-1.052560E-5
-1.200000E-1	-1.039020E-5
-1.100000E-1	-1.028790E-5
-1.000000E-1	-1.018950E-5
-9.000002E-2	-1.009090E-5
-8.000001E-2	-1.000400E-5
-7.000002E-2	-9.860210E-6
-6.000002E-2	-9.767570E-6
-5.000001E-2	-9.666520E-6
-4.000002E-2	-9.532390E-6
-3.000003E-2	-9.455390E-6
-2.000001E-2	-9.340100E-6
-1.000002E-2	-9.234150E-6
-2.980232E-8	-9.111970E-6
9.999990E-3	-9.006880E-6
1.999998E-2	-8.903010E-6
2.999997E-2	-8.789500E-6
3.999999E-2	-8.674670E-6
4.999998E-2	-8.562540E-6
5.999997E-2	-8.454920E-6
6.999999E-2	-8.348980E-6
7.999998E-2	-8.234890E-6
8.999997E-2	-8.121820E-6
9.999996E-2	-8.010780E-6
1.100000E-1	-7.901930E-6
1.200000E-1	-7.789140E-6
1.300000E-1	-7.675090E-6
1.400000E-1	-7.582340E-6
1.500000E-1	-7.467140E-6
1.600000E-1	-7.368250E-6
1.700000E-1	-7.231140E-6
1.800000E-1	-7.114340E-6
1.900000E-1	-6.990650E-6
2.000000E-1	-6.867630E-6
2.100000E-1	-6.756540E-6
2.200000E-1	-6.637990E-6
2.300000E-1	-6.526330E-6
2.399999E-1	-6.423550E-6
2.500000E-1	-6.310580E-6
2.600000E-1	-6.191200E-6
2.700000E-1	-6.068440E-6
2.800000E-1	-5.940080E-6
2.900000E-1	-5.816840E-6
3.000000E-1	-5.695690E-6
3.100000E-1	-5.585150E-6
3.200000E-1	-5.456370E-6
3.300000E-1	-5.343310E-6
3.400000E-1	-5.235180E-6
3.500000E-1	-5.105240E-6
3.600000E-1	-4.981690E-6
3.699999E-1	-4.859410E-6
3.800000E-1	-4.728170E-6
3.900000E-1	-4.598860E-6
4.000000E-1	-4.474120E-6
4.100000E-1	-4.343910E-6
4.200000E-1	-4.220170E-6
4.299999E-1	-4.100310E-6
4.400000E-1	-3.967250E-6
4.500000E-1	-3.834180E-6
4.600000E-1	-3.701890E-6
4.700000E-1	-3.565170E-6
4.800000E-1	-3.429420E-6
4.899999E-1	-3.290540E-6
4.999999E-1	-3.144580E-6
5.100000E-1	-3.009610E-6
5.200000E-1	-2.859650E-6
5.300000E-1	-2.719160E-6
5.400000E-1	-2.568590E-6
5.500000E-1	-2.419030E-6
5.599999E-1	-2.261000E-6
5.700000E-1	-2.104920E-6
5.800000E-1	-1.937650E-6
5.900000E-1	-1.770430E-6
6.000000E-1	-1.599010E-6
6.100000E-1	-1.424740E-6
6.199999E-1	-1.249120E-6
6.300000E-1	-1.064150E-6
6.400000E-1	-8.747790E-7
6.500000E-1	-6.826980E-7
6.600000E-1	-4.832510E-7
6.700000E-1	-2.792240E-7
6.799999E-1	-6.370250E-8
6.899999E-1	1.476310E-7
7.000000E-1	3.671790E-7
7.100000E-1	5.964290E-7
7.200000E-1	8.317200E-7
7.300000E-1	1.072290E-6
7.399999E-1	1.320480E-6
7.499999E-1	1.574980E-6
7.599999E-1	1.836690E-6
7.699999E-1	2.105190E-6
7.799999E-1	2.383050E-6
7.900000E-1	2.668610E-6
8.000000E-1	2.962430E-6
8.100000E-1	3.266100E-6
8.200000E-1	3.580540E-6
8.300000E-1	3.906330E-6
8.400000E-1	4.245310E-6
8.500000E-1	4.594810E-6
8.600000E-1	4.960000E-6
8.699999E-1	5.336370E-6
8.799999E-1	5.728270E-6
8.899999E-1	6.135630E-6
8.999999E-1	6.565500E-6
9.099999E-1	7.011860E-6
9.200000E-1	7.480170E-6
9.300000E-1	7.980050E-6
9.400000E-1	8.491300E-6
9.500000E-1	9.024520E-6
9.600000E-1	9.587280E-6
9.700000E-1	1.019980E-5
9.800000E-1	1.081390E-5
9.899999E-1	1.145240E-5
9.999999E-1	1.213700E-5
