Voltage [V]	Current [A]
-2.000000E-1	-8.213170E-4
-1.950000E-1	-8.015390E-4
-1.900000E-1	-7.815260E-4
-1.850000E-1	-7.610290E-4
-1.800000E-1	-7.405630E-4
-1.750000E-1	-7.206030E-4
-1.700000E-1	-6.998750E-4
-1.650000E-1	-6.788810E-4
-1.600000E-1	-6.569120E-4
-1.550000E-1	-6.362060E-4
-1.500000E-1	-6.155540E-4
-1.450000E-1	-5.946040E-4
-1.400000E-1	-5.740670E-4
-1.350000E-1	-5.540520E-4
-1.300000E-1	-5.330140E-4
-1.250000E-1	-5.125050E-4
-1.200000E-1	-4.920350E-4
-1.150000E-1	-4.713200E-4
-1.100000E-1	-4.508620E-4
-1.050000E-1	-4.301900E-4
-1.000000E-1	-4.095420E-4
-9.500001E-2	-3.888970E-4
-9.000000E-2	-3.687420E-4
-8.500001E-2	-3.480850E-4
-8.000001E-2	-3.275910E-4
-7.500000E-2	-3.070940E-4
-7.000001E-2	-2.867230E-4
-6.500001E-2	-2.659470E-4
-6.000000E-2	-2.455050E-4
-5.500001E-2	-2.251360E-4
-5.000001E-2	-2.046440E-4
-4.500000E-2	-1.841980E-4
-4.000001E-2	-1.638380E-4
-3.500001E-2	-1.435120E-4
-3.000000E-2	-1.232060E-4
-2.500001E-2	-1.029060E-4
-2.000001E-2	-8.254360E-5
-1.500000E-2	-6.231480E-5
-1.000001E-2	-4.202300E-5
-5.000010E-3	-2.174540E-5
-1.490116E-8	-1.501300E-6
4.999995E-3	1.854990E-5
9.999990E-3	3.882030E-5
1.499999E-2	5.901620E-5
2.000000E-2	7.922880E-5
2.499999E-2	9.944840E-5
2.999999E-2	1.197120E-4
3.500000E-2	1.398260E-4
3.999999E-2	1.601130E-4
4.499999E-2	1.800990E-4
5.000000E-2	2.002890E-4
5.499999E-2	2.203010E-4
5.999999E-2	2.402570E-4
6.499998E-2	2.604430E-4
6.999998E-2	2.805670E-4
7.500000E-2	3.004040E-4
8.000000E-2	3.203020E-4
8.499999E-2	3.402990E-4
8.999999E-2	3.603830E-4
9.499998E-2	3.803250E-4
9.999998E-2	4.006230E-4
1.050000E-1	4.207780E-4
1.100000E-1	4.409380E-4
1.150000E-1	4.616520E-4
1.200000E-1	4.815700E-4
1.250000E-1	5.017330E-4
1.300000E-1	5.217190E-4
1.350000E-1	5.417850E-4
1.400000E-1	5.619730E-4
1.450000E-1	5.822500E-4
1.500000E-1	6.020810E-4
1.550000E-1	6.221280E-4
1.600000E-1	6.418170E-4
1.650000E-1	6.621320E-4
1.700000E-1	6.822580E-4
1.750000E-1	7.016980E-4
1.800000E-1	7.215840E-4
1.850000E-1	7.418320E-4
1.900000E-1	7.606270E-4
1.950000E-1	7.803810E-4
2.000000E-1	7.998990E-4
2.050000E-1	8.194880E-4
2.100000E-1	8.389010E-4
2.150000E-1	8.599840E-4
2.200000E-1	8.790810E-4
2.250000E-1	8.991100E-4
2.300000E-1	9.185150E-4
2.350000E-1	9.387290E-4
2.400000E-1	9.567720E-4
2.450000E-1	9.773960E-4
2.500000E-1	9.963380E-4
2.550000E-1	1.017640E-3
2.600000E-1	1.037500E-3
2.650000E-1	1.056910E-3
2.700000E-1	1.075470E-3
2.750000E-1	1.095230E-3
2.800000E-1	1.114730E-3
2.850000E-1	1.135030E-3
2.900000E-1	1.154990E-3
2.950000E-1	1.174240E-3
3.000000E-1	1.193820E-3
3.050000E-1	1.213830E-3
3.100000E-1	1.233690E-3
3.150000E-1	1.252570E-3
3.200000E-1	1.270840E-3
3.250000E-1	1.290460E-3
3.300000E-1	1.310140E-3
3.350000E-1	1.330320E-3
3.400000E-1	1.349850E-3
3.450000E-1	1.368750E-3
3.500000E-1	1.387160E-3
3.550000E-1	1.406780E-3
3.600000E-1	1.426140E-3
3.650000E-1	1.446900E-3
3.700000E-1	1.465820E-3
3.750000E-1	1.485670E-3
3.800000E-1	1.504420E-3
3.850000E-1	1.523000E-3
3.900000E-1	1.542840E-3
3.950000E-1	1.562890E-3
4.000000E-1	1.580990E-3
4.050000E-1	1.600140E-3
4.100000E-1	1.619670E-3
4.150000E-1	1.639590E-3
4.200000E-1	1.659740E-3
4.250000E-1	1.711120E-3
4.300000E-1	1.729800E-3
4.350000E-1	1.746360E-3
4.400000E-1	1.766740E-3
4.450000E-1	1.785240E-3
4.500000E-1	1.803200E-3
4.550000E-1	1.822780E-3
4.600000E-1	1.840860E-3
4.650000E-1	1.858310E-3
4.700000E-1	1.877600E-3
4.750000E-1	1.897260E-3
4.800000E-1	1.914250E-3
4.850000E-1	1.933530E-3
4.900000E-1	1.953160E-3
4.950000E-1	1.975310E-3
5.000000E-1	1.993690E-3
5.050000E-1	2.015570E-3
5.100000E-1	2.034870E-3
5.150000E-1	2.055110E-3
5.200000E-1	2.073590E-3
5.250000E-1	2.091200E-3
5.300000E-1	2.107650E-3
5.350000E-1	2.127460E-3
5.400000E-1	2.147400E-3
5.450000E-1	2.166260E-3
5.500000E-1	2.184960E-3
5.550000E-1	2.203430E-3
5.600000E-1	2.223440E-3
5.650000E-1	2.240480E-3
5.700000E-1	2.259350E-3
5.750000E-1	2.280270E-3
5.800000E-1	2.298670E-3
5.850000E-1	2.318140E-3
5.900000E-1	2.337630E-3
5.950000E-1	2.355110E-3
6.000000E-1	2.374530E-3
6.050000E-1	2.395290E-3
6.100000E-1	2.415650E-3
6.150000E-1	2.431030E-3
6.200000E-1	2.451220E-3
6.250000E-1	2.469060E-3
6.300000E-1	2.490110E-3
6.350000E-1	2.511140E-3
6.400000E-1	2.528130E-3
6.450000E-1	2.549750E-3
6.500000E-1	2.566230E-3
6.550000E-1	2.586270E-3
6.600000E-1	2.604650E-3
6.650000E-1	2.621420E-3
6.700000E-1	2.643140E-3
6.750000E-1	2.664160E-3
6.800000E-1	2.681060E-3
6.850000E-1	2.700690E-3
6.900000E-1	2.719220E-3
6.950000E-1	2.737970E-3
7.000000E-1	2.759820E-3
7.050000E-1	2.780690E-3
7.100000E-1	2.798960E-3
7.150000E-1	2.818820E-3
7.200000E-1	2.838340E-3
7.250000E-1	2.858630E-3
7.300000E-1	2.878690E-3
7.350000E-1	2.897450E-3
7.400000E-1	2.915490E-3
7.450000E-1	2.933980E-3
7.500000E-1	2.953220E-3
7.550000E-1	2.973410E-3
7.600000E-1	2.995810E-3
7.650000E-1	3.014990E-3
7.700000E-1	3.031840E-3
7.750000E-1	3.053180E-3
7.800000E-1	3.069340E-3
7.850000E-1	3.091790E-3
7.900000E-1	3.107460E-3
7.950000E-1	3.128770E-3
8.000000E-1	3.143920E-3
