Voltage [V]	Current [A]
-2.000000E-1	-5.567080E-4
-1.950000E-1	-5.434260E-4
-1.900000E-1	-5.299390E-4
-1.850000E-1	-5.159200E-4
-1.800000E-1	-5.022340E-4
-1.750000E-1	-4.883700E-4
-1.700000E-1	-4.744320E-4
-1.650000E-1	-4.604260E-4
-1.600000E-1	-4.464670E-4
-1.550000E-1	-4.326720E-4
-1.500000E-1	-4.188970E-4
-1.450000E-1	-4.052390E-4
-1.400000E-1	-3.911750E-4
-1.350000E-1	-3.770060E-4
-1.300000E-1	-3.629570E-4
-1.250000E-1	-3.490630E-4
-1.200000E-1	-3.352340E-4
-1.150000E-1	-3.211510E-4
-1.100000E-1	-3.070960E-4
-1.050000E-1	-2.931170E-4
-1.000000E-1	-2.791730E-4
-9.500001E-2	-2.651670E-4
-9.000000E-2	-2.511740E-4
-8.500001E-2	-2.372630E-4
-8.000001E-2	-2.232440E-4
-7.500000E-2	-2.093630E-4
-7.000001E-2	-1.954800E-4
-6.500001E-2	-1.815970E-4
-6.000000E-2	-1.676120E-4
-5.500001E-2	-1.536890E-4
-5.000001E-2	-1.397000E-4
-4.500000E-2	-1.258260E-4
-4.000001E-2	-1.118750E-4
-3.500001E-2	-9.797160E-5
-3.000000E-2	-8.409060E-5
-2.500001E-2	-7.016090E-5
-2.000001E-2	-5.625610E-5
-1.500000E-2	-4.237330E-5
-1.000001E-2	-2.845470E-5
-5.000010E-3	-1.454310E-5
-1.490116E-8	-6.430050E-7
4.999995E-3	1.314610E-5
9.999990E-3	2.705160E-5
1.499999E-2	4.097290E-5
2.000000E-2	5.485120E-5
2.499999E-2	6.875750E-5
2.999999E-2	8.263520E-5
3.500000E-2	9.653090E-5
3.999999E-2	1.103900E-4
4.499999E-2	1.242930E-4
5.000000E-2	1.381120E-4
5.499999E-2	1.519500E-4
5.999999E-2	1.657630E-4
6.499998E-2	1.797040E-4
6.999998E-2	1.935920E-4
7.500000E-2	2.074610E-4
8.000000E-2	2.214680E-4
8.499999E-2	2.352370E-4
8.999999E-2	2.490110E-4
9.499998E-2	2.628280E-4
9.999998E-2	2.766870E-4
1.050000E-1	2.906130E-4
1.100000E-1	3.045310E-4
1.150000E-1	3.185380E-4
1.200000E-1	3.321110E-4
1.250000E-1	3.459460E-4
1.300000E-1	3.596870E-4
1.350000E-1	3.735720E-4
1.400000E-1	3.872520E-4
1.450000E-1	4.013820E-4
1.500000E-1	4.150780E-4
1.550000E-1	4.288940E-4
1.600000E-1	4.431080E-4
1.650000E-1	4.568730E-4
1.700000E-1	4.706000E-4
1.750000E-1	4.846170E-4
1.800000E-1	4.984170E-4
1.850000E-1	5.118290E-4
1.900000E-1	5.259540E-4
1.950000E-1	5.394910E-4
2.000000E-1	5.534050E-4
2.050000E-1	5.671080E-4
2.100000E-1	5.808100E-4
2.150000E-1	5.945110E-4
2.200000E-1	6.082280E-4
2.250000E-1	6.218210E-4
2.300000E-1	6.352430E-4
2.350000E-1	6.491880E-4
2.400000E-1	6.631920E-4
2.450000E-1	6.768740E-4
2.500000E-1	6.907750E-4
2.550000E-1	7.047640E-4
2.600000E-1	7.186900E-4
2.650000E-1	7.322530E-4
2.700000E-1	7.459950E-4
2.750000E-1	7.593970E-4
2.800000E-1	7.727720E-4
2.850000E-1	7.861120E-4
2.900000E-1	7.997410E-4
2.950000E-1	8.136370E-4
3.000000E-1	8.273360E-4
3.050000E-1	8.410040E-4
3.100000E-1	8.551010E-4
3.150000E-1	8.683800E-4
3.200000E-1	8.819730E-4
3.250000E-1	8.959720E-4
3.300000E-1	9.092880E-4
3.350000E-1	9.238000E-4
3.400000E-1	9.374710E-4
3.450000E-1	9.508200E-4
3.500000E-1	9.642080E-4
3.550000E-1	9.778320E-4
3.600000E-1	9.911530E-4
3.650000E-1	1.006480E-3
3.700000E-1	1.020210E-3
3.750000E-1	1.033940E-3
3.800000E-1	1.048070E-3
3.850000E-1	1.061400E-3
3.900000E-1	1.075020E-3
3.950000E-1	1.089030E-3
4.000000E-1	1.102700E-3
4.050000E-1	1.116500E-3
4.100000E-1	1.129910E-3
4.150000E-1	1.144710E-3
4.200000E-1	1.157800E-3
4.250000E-1	1.171810E-3
4.300000E-1	1.184710E-3
4.350000E-1	1.198260E-3
4.400000E-1	1.211760E-3
4.450000E-1	1.226420E-3
4.500000E-1	1.240380E-3
4.550000E-1	1.254630E-3
4.600000E-1	1.267930E-3
4.650000E-1	1.282550E-3
4.700000E-1	1.295850E-3
4.750000E-1	1.309230E-3
4.800000E-1	1.323320E-3
4.850000E-1	1.336600E-3
4.900000E-1	1.349110E-3
4.950000E-1	1.363030E-3
5.000000E-1	1.375750E-3
5.050000E-1	1.390020E-3
5.100000E-1	1.402950E-3
5.150000E-1	1.416450E-3
5.200000E-1	1.429950E-3
5.250000E-1	1.443610E-3
5.300000E-1	1.456950E-3
5.350000E-1	1.472250E-3
5.400000E-1	1.485670E-3
5.450000E-1	1.499830E-3
5.500000E-1	1.513300E-3
5.550000E-1	1.527680E-3
5.600000E-1	1.539350E-3
5.650000E-1	1.553030E-3
5.700000E-1	1.566820E-3
5.750000E-1	1.580220E-3
5.800000E-1	1.594670E-3
5.850000E-1	1.608670E-3
5.900000E-1	1.621510E-3
5.950000E-1	1.635080E-3
6.000000E-1	1.647780E-3
6.050000E-1	1.661750E-3
6.100000E-1	1.674510E-3
6.150000E-1	1.688340E-3
6.200000E-1	1.701830E-3
6.250000E-1	1.714600E-3
6.300000E-1	1.728610E-3
6.350000E-1	1.741870E-3
6.400000E-1	1.756120E-3
6.450000E-1	1.770150E-3
6.500000E-1	1.784230E-3
6.550000E-1	1.797320E-3
6.600000E-1	1.810160E-3
6.650000E-1	1.823150E-3
6.700000E-1	1.835780E-3
6.750000E-1	1.849430E-3
6.800000E-1	1.862000E-3
6.850000E-1	1.876720E-3
6.900000E-1	1.888610E-3
6.950000E-1	1.904630E-3
7.000000E-1	1.917310E-3
7.050000E-1	1.930820E-3
7.100000E-1	1.943530E-3
7.150000E-1	1.958300E-3
7.200000E-1	1.970280E-3
7.250000E-1	1.984250E-3
7.300000E-1	1.997730E-3
7.350000E-1	2.011040E-3
7.400000E-1	2.024500E-3
7.450000E-1	2.037640E-3
7.500000E-1	2.049650E-3
7.550000E-1	2.062910E-3
7.600000E-1	2.076480E-3
7.650000E-1	2.088770E-3
7.700000E-1	2.102990E-3
7.750000E-1	2.117860E-3
7.800000E-1	2.130800E-3
7.850000E-1	2.146300E-3
7.900000E-1	2.159550E-3
7.950000E-1	2.173110E-3
8.000000E-1	2.186270E-3
