Voltage [V]	Current [A]
-2.000000E-1	-2.300930E-5
-1.950000E-1	-2.235070E-5
-1.900000E-1	-2.160120E-5
-1.850000E-1	-2.149700E-5
-1.800000E-1	-2.127820E-5
-1.750000E-1	-2.079780E-5
-1.700000E-1	-2.033550E-5
-1.650000E-1	-2.019770E-5
-1.600000E-1	-2.002040E-5
-1.550000E-1	-1.947830E-5
-1.500000E-1	-1.906220E-5
-1.450000E-1	-1.861800E-5
-1.400000E-1	-1.859820E-5
-1.350000E-1	-1.815340E-5
-1.300000E-1	-1.747630E-5
-1.250000E-1	-1.717810E-5
-1.200000E-1	-1.651930E-5
-1.150000E-1	-1.615980E-5
-1.100000E-1	-1.580530E-5
-1.050000E-1	-1.533260E-5
-1.000000E-1	-1.483950E-5
-9.500001E-2	-1.425360E-5
-9.000000E-2	-1.382270E-5
-8.500001E-2	-1.343660E-5
-8.000001E-2	-1.305530E-5
-7.500000E-2	-1.262830E-5
-7.000001E-2	-1.236290E-5
-6.500001E-2	-1.161780E-5
-6.000000E-2	-1.126740E-5
-5.500001E-2	-1.093200E-5
-5.000001E-2	-1.051620E-5
-4.500000E-2	-1.021280E-5
-4.000001E-2	-9.801780E-6
-3.500001E-2	-9.391400E-6
-3.000000E-2	-8.964750E-6
-2.500001E-2	-8.546970E-6
-2.000001E-2	-8.338420E-6
-1.500000E-2	-7.869790E-6
-1.000001E-2	-7.374280E-6
-5.000010E-3	-6.725440E-6
-1.490116E-8	-6.299710E-6
4.999995E-3	-5.864540E-6
9.999990E-3	-5.415270E-6
1.499999E-2	-4.955970E-6
2.000000E-2	-4.499660E-6
2.499999E-2	-4.091940E-6
2.999999E-2	-3.488340E-6
3.500000E-2	-3.069840E-6
3.999999E-2	-2.687350E-6
4.499999E-2	-2.202640E-6
5.000000E-2	-1.853970E-6
5.499999E-2	-1.347120E-6
5.999999E-2	-1.008860E-6
6.499998E-2	-6.019850E-7
6.999998E-2	-8.682370E-8
7.500000E-2	3.786660E-7
8.000000E-2	5.374720E-7
8.499999E-2	1.255850E-6
8.999999E-2	1.493850E-6
9.499998E-2	1.761640E-6
9.999998E-2	2.364660E-6
1.050000E-1	2.643880E-6
1.100000E-1	3.283590E-6
1.150000E-1	3.414300E-6
1.200000E-1	3.958290E-6
1.250000E-1	4.566890E-6
1.300000E-1	4.754280E-6
1.350000E-1	5.173050E-6
1.400000E-1	5.647560E-6
1.450000E-1	6.021400E-6
1.500000E-1	6.450550E-6
1.550000E-1	6.766990E-6
1.600000E-1	7.401820E-6
1.650000E-1	8.015590E-6
1.700000E-1	8.949630E-6
1.750000E-1	9.195480E-6
1.800000E-1	9.878430E-6
1.850000E-1	9.964980E-6
1.900000E-1	1.106630E-5
1.950000E-1	1.099960E-5
2.000000E-1	1.201610E-5
2.050000E-1	1.222580E-5
2.100000E-1	1.289150E-5
2.150000E-1	1.287990E-5
2.200000E-1	1.361270E-5
2.250000E-1	1.450210E-5
2.300000E-1	1.542180E-5
2.350000E-1	1.545390E-5
2.400000E-1	1.650180E-5
2.450000E-1	1.636660E-5
2.500000E-1	1.682700E-5
2.550000E-1	1.727400E-5
2.600000E-1	1.783940E-5
2.650000E-1	1.831270E-5
2.700000E-1	1.881120E-5
2.750000E-1	2.024890E-5
2.800000E-1	2.002630E-5
2.850000E-1	1.994790E-5
2.900000E-1	2.124780E-5
2.950000E-1	2.116900E-5
3.000000E-1	2.236190E-5
3.050000E-1	2.305270E-5
3.100000E-1	2.354490E-5
3.150000E-1	2.408280E-5
3.200000E-1	2.453780E-5
3.250000E-1	2.542990E-5
3.300000E-1	2.634810E-5
3.350000E-1	2.677510E-5
3.400000E-1	2.719310E-5
3.450000E-1	2.799570E-5
3.500000E-1	2.857660E-5
3.550000E-1	2.887630E-5
3.600000E-1	2.891870E-5
3.650000E-1	2.959340E-5
3.700000E-1	3.015540E-5
3.750000E-1	3.185860E-5
3.800000E-1	3.169840E-5
3.850000E-1	3.279220E-5
3.900000E-1	3.409760E-5
3.950000E-1	3.364010E-5
4.000000E-1	3.500520E-5
4.050000E-1	3.670630E-5
4.100000E-1	3.624820E-5
4.150000E-1	3.656890E-5
4.200000E-1	3.625990E-5
4.250000E-1	3.632720E-5
4.300000E-1	3.711110E-5
4.350000E-1	3.716740E-5
4.400000E-1	3.792300E-5
4.450000E-1	3.796880E-5
4.500000E-1	3.993600E-5
4.550000E-1	3.927910E-5
4.600000E-1	4.110000E-5
4.650000E-1	4.152090E-5
4.700000E-1	4.214230E-5
4.750000E-1	4.288070E-5
4.800000E-1	4.408530E-5
4.850000E-1	4.627380E-5
4.900000E-1	4.524200E-5
4.950000E-1	4.558320E-5
5.000000E-1	4.653210E-5
5.050000E-1	4.758930E-5
5.100000E-1	4.931400E-5
5.150000E-1	5.006640E-5
5.200000E-1	5.076040E-5
5.250000E-1	5.284270E-5
5.300000E-1	5.217240E-5
5.350000E-1	5.176250E-5
5.400000E-1	5.445920E-5
5.450000E-1	5.343600E-5
5.500000E-1	5.375600E-5
5.550000E-1	5.395360E-5
5.600000E-1	5.621850E-5
5.650000E-1	5.599060E-5
5.700000E-1	5.599720E-5
5.750000E-1	5.705310E-5
5.800000E-1	5.901160E-5
5.850000E-1	5.976100E-5
5.900000E-1	6.292270E-5
5.950000E-1	6.080870E-5
6.000000E-1	6.227500E-5
6.050000E-1	6.297310E-5
6.100000E-1	6.380320E-5
6.150000E-1	6.524040E-5
6.200000E-1	6.733760E-5
6.250000E-1	7.013910E-5
6.300000E-1	7.273730E-5
6.350000E-1	7.328450E-5
6.400000E-1	7.119680E-5
6.450000E-1	7.322110E-5
6.500000E-1	7.425660E-5
6.550000E-1	7.694120E-5
6.600000E-1	7.809290E-5
6.650000E-1	8.136200E-5
6.700000E-1	8.214590E-5
6.750000E-1	8.562400E-5
6.800000E-1	8.677990E-5
6.850000E-1	8.896250E-5
6.900000E-1	9.361990E-5
6.950000E-1	1.077900E-4
7.000000E-1	1.077250E-4
7.050000E-1	1.113980E-4
7.100000E-1	1.147450E-4
7.150000E-1	1.162490E-4
7.200000E-1	1.196850E-4
7.250000E-1	1.224840E-4
7.300000E-1	1.265560E-4
7.350000E-1	1.297410E-4
7.400000E-1	1.318360E-4
7.450000E-1	1.378260E-4
7.500000E-1	1.377920E-4
7.550000E-1	1.403840E-4
7.600000E-1	1.450710E-4
7.650000E-1	1.487130E-4
7.700000E-1	1.527320E-4
7.750000E-1	1.568000E-4
7.800000E-1	1.602760E-4
7.850000E-1	1.623170E-4
7.900000E-1	1.626650E-4
7.950000E-1	1.668130E-4
8.000000E-1	1.709570E-4
