Voltage [V]	Current [A]
-3.000000E-1	-5.511730E-6
-2.900000E-1	-5.446640E-6
-2.800000E-1	-5.395530E-6
-2.700000E-1	-5.344350E-6
-2.600000E-1	-5.298010E-6
-2.500000E-1	-5.260380E-6
-2.400000E-1	-5.210620E-6
-2.300000E-1	-5.156300E-6
-2.200000E-1	-5.103950E-6
-2.100000E-1	-5.060610E-6
-2.000000E-1	-5.023100E-6
-1.900000E-1	-4.976020E-6
-1.800000E-1	-4.939910E-6
-1.700000E-1	-4.888110E-6
-1.600000E-1	-4.844900E-6
-1.500000E-1	-4.806760E-6
-1.400000E-1	-4.755590E-6
-1.300000E-1	-4.714280E-6
-1.200000E-1	-4.681300E-6
-1.100000E-1	-4.630090E-6
-1.000000E-1	-4.586920E-6
-9.000002E-2	-4.550840E-6
-8.000001E-2	-4.498160E-6
-7.000002E-2	-4.454100E-6
-6.000002E-2	-4.413590E-6
-5.000001E-2	-4.374760E-6
-4.000002E-2	-4.326850E-6
-3.000003E-2	-4.291690E-6
-2.000001E-2	-4.237280E-6
-1.000002E-2	-4.186720E-6
-2.980232E-8	-4.142230E-6
9.999990E-3	-4.098580E-6
1.999998E-2	-4.047890E-6
2.999997E-2	-4.007150E-6
3.999999E-2	-3.957880E-6
4.999998E-2	-3.911390E-6
5.999997E-2	-3.873680E-6
6.999999E-2	-3.830110E-6
7.999998E-2	-3.780370E-6
8.999997E-2	-3.730630E-6
9.999996E-2	-3.684720E-6
1.100000E-1	-3.642700E-6
1.200000E-1	-3.590430E-6
1.300000E-1	-3.543260E-6
1.400000E-1	-3.503240E-6
1.500000E-1	-3.449910E-6
1.600000E-1	-3.406480E-6
1.700000E-1	-3.362550E-6
1.800000E-1	-3.301530E-6
1.900000E-1	-3.262890E-6
2.000000E-1	-3.214320E-6
2.100000E-1	-3.163070E-6
2.200000E-1	-3.113550E-6
2.300000E-1	-3.065440E-6
2.399999E-1	-3.017720E-6
2.500000E-1	-2.975530E-6
2.600000E-1	-2.923650E-6
2.700000E-1	-2.877100E-6
2.800000E-1	-2.828230E-6
2.900000E-1	-2.776600E-6
3.000000E-1	-2.726290E-6
3.100000E-1	-2.671260E-6
3.200000E-1	-2.617210E-6
3.300000E-1	-2.567130E-6
3.400000E-1	-2.519700E-6
3.500000E-1	-2.469860E-6
3.600000E-1	-2.422360E-6
3.699999E-1	-2.367590E-6
3.800000E-1	-2.315110E-6
3.900000E-1	-2.261850E-6
4.000000E-1	-2.203800E-6
4.100000E-1	-2.149970E-6
4.200000E-1	-2.096670E-6
4.299999E-1	-2.043050E-6
4.400000E-1	-1.988010E-6
4.500000E-1	-1.932410E-6
4.600000E-1	-1.877550E-6
4.700000E-1	-1.820700E-6
4.800000E-1	-1.764140E-6
4.899999E-1	-1.702450E-6
4.999999E-1	-1.643240E-6
5.100000E-1	-1.580330E-6
5.200000E-1	-1.517050E-6
5.300000E-1	-1.449750E-6
5.400000E-1	-1.383830E-6
5.500000E-1	-1.320830E-6
5.599999E-1	-1.250640E-6
5.700000E-1	-1.181070E-6
5.800000E-1	-1.108370E-6
5.900000E-1	-1.032920E-6
6.000000E-1	-9.535030E-7
6.100000E-1	-8.735400E-7
6.199999E-1	-7.901050E-7
6.300000E-1	-7.041140E-7
6.400000E-1	-6.145920E-7
6.500000E-1	-5.190790E-7
6.600000E-1	-4.181770E-7
6.700000E-1	-3.143540E-7
6.799999E-1	-2.039630E-7
6.899999E-1	-7.142060E-8
7.000000E-1	3.210970E-8
7.100000E-1	1.561960E-7
7.200000E-1	2.900940E-7
7.300000E-1	4.317040E-7
7.399999E-1	5.808190E-7
7.499999E-1	7.379780E-7
7.599999E-1	9.036250E-7
7.699999E-1	1.077830E-6
7.799999E-1	1.262110E-6
7.900000E-1	1.455830E-6
8.000000E-1	1.660020E-6
8.100000E-1	1.875120E-6
8.200000E-1	2.101900E-6
8.300000E-1	2.340640E-6
8.400000E-1	2.592490E-6
8.500000E-1	2.858740E-6
8.600000E-1	3.141610E-6
8.699999E-1	3.440350E-6
8.799999E-1	3.753100E-6
8.899999E-1	4.085040E-6
8.999999E-1	4.433340E-6
9.099999E-1	4.804790E-6
9.200000E-1	5.195920E-6
9.300000E-1	5.619890E-6
9.400000E-1	6.061650E-6
9.500000E-1	6.529490E-6
9.600000E-1	7.023690E-6
9.700000E-1	7.543530E-6
9.800000E-1	8.094050E-6
9.899999E-1	8.676770E-6
9.999999E-1	9.296780E-6
