Voltage [V]	Current [A]
-3.000000E-1	-3.968570E-5
-2.900000E-1	-3.934720E-5
-2.800000E-1	-3.902600E-5
-2.700000E-1	-3.865870E-5
-2.600000E-1	-3.841000E-5
-2.500000E-1	-3.809260E-5
-2.400000E-1	-3.774910E-5
-2.300000E-1	-3.747570E-5
-2.200000E-1	-3.721790E-5
-2.100000E-1	-3.687870E-5
-2.000000E-1	-3.662890E-5
-1.900000E-1	-3.622460E-5
-1.800000E-1	-3.588340E-5
-1.700000E-1	-3.560820E-5
-1.600000E-1	-3.531750E-5
-1.500000E-1	-3.498440E-5
-1.400000E-1	-3.463970E-5
-1.300000E-1	-3.428640E-5
-1.200000E-1	-3.399570E-5
-1.100000E-1	-3.362180E-5
-1.000000E-1	-3.333620E-5
-9.000002E-2	-3.300400E-5
-8.000001E-2	-3.270450E-5
-7.000002E-2	-3.240390E-5
-6.000002E-2	-3.205100E-5
-5.000001E-2	-3.175130E-5
-4.000002E-2	-3.142550E-5
-3.000003E-2	-3.104340E-5
-2.000001E-2	-3.070450E-5
-1.000002E-2	-3.038790E-5
-2.980232E-8	-3.005670E-5
9.999990E-3	-2.973720E-5
1.999998E-2	-2.944570E-5
2.999997E-2	-2.915410E-5
3.999999E-2	-2.885060E-5
4.999998E-2	-2.853250E-5
5.999997E-2	-2.815780E-5
6.999999E-2	-2.779530E-5
7.999998E-2	-2.745900E-5
8.999997E-2	-2.707270E-5
9.999996E-2	-2.672740E-5
1.100000E-1	-2.642560E-5
1.200000E-1	-2.612200E-5
1.300000E-1	-2.577400E-5
1.400000E-1	-2.544360E-5
1.500000E-1	-2.510600E-5
1.600000E-1	-2.475960E-5
1.700000E-1	-2.436060E-5
1.800000E-1	-2.397860E-5
1.900000E-1	-2.364870E-5
2.000000E-1	-2.329640E-5
2.100000E-1	-2.297050E-5
2.200000E-1	-2.265750E-5
2.300000E-1	-2.232280E-5
2.399999E-1	-2.197880E-5
2.500000E-1	-2.161780E-5
2.600000E-1	-2.127880E-5
2.700000E-1	-2.089570E-5
2.800000E-1	-2.053080E-5
2.900000E-1	-2.019710E-5
3.000000E-1	-1.983680E-5
3.100000E-1	-1.950350E-5
3.200000E-1	-1.913700E-5
3.300000E-1	-1.875790E-5
3.400000E-1	-1.838460E-5
3.500000E-1	-1.803370E-5
3.600000E-1	-1.769970E-5
3.699999E-1	-1.734010E-5
3.800000E-1	-1.696020E-5
3.900000E-1	-1.659020E-5
4.000000E-1	-1.620370E-5
4.100000E-1	-1.584820E-5
4.200000E-1	-1.548910E-5
4.299999E-1	-1.512870E-5
4.400000E-1	-1.475060E-5
4.500000E-1	-1.437630E-5
4.600000E-1	-1.397070E-5
4.700000E-1	-1.359200E-5
4.800000E-1	-1.319550E-5
4.899999E-1	-1.282720E-5
4.999999E-1	-1.242410E-5
5.100000E-1	-1.202910E-5
5.200000E-1	-1.163550E-5
5.300000E-1	-1.123220E-5
5.400000E-1	-1.084210E-5
5.500000E-1	-1.043340E-5
5.599999E-1	-1.002960E-5
5.700000E-1	-9.615630E-6
5.800000E-1	-9.214340E-6
5.900000E-1	-8.774390E-6
6.000000E-1	-8.341000E-6
6.100000E-1	-7.900160E-6
6.199999E-1	-7.459910E-6
6.300000E-1	-7.011620E-6
6.400000E-1	-6.550070E-6
6.500000E-1	-6.092040E-6
6.600000E-1	-5.628860E-6
6.700000E-1	-5.151250E-6
6.799999E-1	-4.660140E-6
6.899999E-1	-4.150010E-6
7.000000E-1	-3.639920E-6
7.100000E-1	-3.125760E-6
7.200000E-1	-2.604020E-6
7.300000E-1	-2.061830E-6
7.399999E-1	-1.519020E-6
7.499999E-1	-9.669490E-7
7.599999E-1	-4.047950E-7
7.699999E-1	1.626840E-7
7.799999E-1	7.411770E-7
7.900000E-1	1.321800E-6
8.000000E-1	1.912590E-6
8.100000E-1	2.509330E-6
8.200000E-1	3.110000E-6
8.300000E-1	3.715420E-6
8.400000E-1	4.328150E-6
8.500000E-1	4.950540E-6
8.600000E-1	5.582230E-6
8.699999E-1	6.223910E-6
8.799999E-1	6.873270E-6
8.899999E-1	7.541070E-6
8.999999E-1	8.216550E-6
9.099999E-1	8.910060E-6
9.200000E-1	9.617400E-6
9.300000E-1	1.035900E-5
9.400000E-1	1.110110E-5
9.500000E-1	1.188640E-5
9.600000E-1	1.270360E-5
9.700000E-1	1.354550E-5
9.800000E-1	1.442780E-5
9.899999E-1	1.534150E-5
9.999999E-1	1.629160E-5
