Voltage [V]	Current [A]
-3.000000E-1	-1.009330E-5
-2.900000E-1	-9.975710E-6
-2.800000E-1	-9.887720E-6
-2.700000E-1	-9.824880E-6
-2.600000E-1	-9.742060E-6
-2.500000E-1	-9.648160E-6
-2.400000E-1	-9.574190E-6
-2.300000E-1	-9.476790E-6
-2.200000E-1	-9.362710E-6
-2.100000E-1	-9.291780E-6
-2.000000E-1	-9.232150E-6
-1.900000E-1	-9.156680E-6
-1.800000E-1	-9.085290E-6
-1.700000E-1	-9.003710E-6
-1.600000E-1	-8.915330E-6
-1.500000E-1	-8.839580E-6
-1.400000E-1	-8.767830E-6
-1.300000E-1	-8.680230E-6
-1.200000E-1	-8.595400E-6
-1.100000E-1	-8.497470E-6
-1.000000E-1	-8.411340E-6
-9.000002E-2	-8.330510E-6
-8.000001E-2	-8.256310E-6
-7.000002E-2	-8.175980E-6
-6.000002E-2	-8.096380E-6
-5.000001E-2	-8.026760E-6
-4.000002E-2	-7.944760E-6
-3.000003E-2	-7.864650E-6
-2.000001E-2	-7.783050E-6
-1.000002E-2	-7.695930E-6
-2.980232E-8	-7.604480E-6
9.999990E-3	-7.512430E-6
1.999998E-2	-7.425120E-6
2.999997E-2	-7.348250E-6
3.999999E-2	-7.274180E-6
4.999998E-2	-7.184940E-6
5.999997E-2	-7.100780E-6
6.999999E-2	-7.029880E-6
7.999998E-2	-6.940430E-6
8.999997E-2	-6.853260E-6
9.999996E-2	-6.761650E-6
1.100000E-1	-6.665170E-6
1.200000E-1	-6.580800E-6
1.300000E-1	-6.505980E-6
1.400000E-1	-6.418830E-6
1.500000E-1	-6.325810E-6
1.600000E-1	-6.248380E-6
1.700000E-1	-6.168750E-6
1.800000E-1	-6.072820E-6
1.900000E-1	-5.982870E-6
2.000000E-1	-5.890660E-6
2.100000E-1	-5.800390E-6
2.200000E-1	-5.719310E-6
2.300000E-1	-5.626620E-6
2.399999E-1	-5.541520E-6
2.500000E-1	-5.453070E-6
2.600000E-1	-5.368300E-6
2.700000E-1	-5.287100E-6
2.800000E-1	-5.189370E-6
2.900000E-1	-5.099140E-6
3.000000E-1	-4.994270E-6
3.100000E-1	-4.903560E-6
3.200000E-1	-4.802810E-6
3.300000E-1	-4.710800E-6
3.400000E-1	-4.615510E-6
3.500000E-1	-4.520430E-6
3.600000E-1	-4.433130E-6
3.699999E-1	-4.341710E-6
3.800000E-1	-4.247800E-6
3.900000E-1	-4.150990E-6
4.000000E-1	-4.055170E-6
4.100000E-1	-3.953010E-6
4.200000E-1	-3.852440E-6
4.299999E-1	-3.753240E-6
4.400000E-1	-3.655460E-6
4.500000E-1	-3.557400E-6
4.600000E-1	-3.459310E-6
4.700000E-1	-3.359660E-6
4.800000E-1	-3.253590E-6
4.899999E-1	-3.148130E-6
4.999999E-1	-3.044150E-6
5.100000E-1	-2.927120E-6
5.200000E-1	-2.814910E-6
5.300000E-1	-2.704660E-6
5.400000E-1	-2.590750E-6
5.500000E-1	-2.478410E-6
5.599999E-1	-2.368010E-6
5.700000E-1	-2.250600E-6
5.800000E-1	-2.123850E-6
5.900000E-1	-1.993730E-6
6.000000E-1	-1.864680E-6
6.100000E-1	-1.727790E-6
6.199999E-1	-1.591010E-6
6.300000E-1	-1.449740E-6
6.400000E-1	-1.308560E-6
6.500000E-1	-1.160270E-6
6.600000E-1	-1.006610E-6
6.700000E-1	-8.457420E-7
6.799999E-1	-6.808360E-7
6.899999E-1	-5.102940E-7
7.000000E-1	-3.316770E-7
7.100000E-1	-1.477360E-7
7.200000E-1	4.448710E-8
7.300000E-1	2.430040E-7
7.399999E-1	4.484760E-7
7.499999E-1	6.639760E-7
7.599999E-1	8.873640E-7
7.699999E-1	1.118150E-6
7.799999E-1	1.359660E-6
7.900000E-1	1.609440E-6
8.000000E-1	1.868220E-6
8.100000E-1	2.138320E-6
8.200000E-1	2.416990E-6
8.300000E-1	2.706770E-6
8.400000E-1	3.008300E-6
8.500000E-1	3.322510E-6
8.600000E-1	3.652580E-6
8.699999E-1	3.999590E-6
8.799999E-1	4.360290E-6
8.899999E-1	4.738490E-6
8.999999E-1	5.137360E-6
9.099999E-1	5.551040E-6
9.200000E-1	5.985400E-6
9.300000E-1	6.450010E-6
9.400000E-1	6.931490E-6
9.500000E-1	7.444970E-6
9.600000E-1	7.982690E-6
9.700000E-1	8.545200E-6
9.800000E-1	9.141750E-6
9.899999E-1	9.761940E-6
9.999999E-1	1.044160E-5
