Voltage [V]	Current [A]
-3.000000E-1	-2.897450E-6
-2.900000E-1	-2.860720E-6
-2.800000E-1	-2.830030E-6
-2.700000E-1	-2.801920E-6
-2.600000E-1	-2.772890E-6
-2.500000E-1	-2.747230E-6
-2.400000E-1	-2.721900E-6
-2.300000E-1	-2.696500E-6
-2.200000E-1	-2.672100E-6
-2.100000E-1	-2.654290E-6
-2.000000E-1	-2.636720E-6
-1.900000E-1	-2.607510E-6
-1.800000E-1	-2.585660E-6
-1.700000E-1	-2.563230E-6
-1.600000E-1	-2.542920E-6
-1.500000E-1	-2.518530E-6
-1.400000E-1	-2.493060E-6
-1.300000E-1	-2.467240E-6
-1.200000E-1	-2.447860E-6
-1.100000E-1	-2.422030E-6
-1.000000E-1	-2.398070E-6
-9.000002E-2	-2.375300E-6
-8.000001E-2	-2.350410E-6
-7.000002E-2	-2.326610E-6
-6.000002E-2	-2.303620E-6
-5.000001E-2	-2.282640E-6
-4.000002E-2	-2.260650E-6
-3.000003E-2	-2.234870E-6
-2.000001E-2	-2.212990E-6
-1.000002E-2	-2.185610E-6
-2.980232E-8	-2.160960E-6
9.999990E-3	-2.137310E-6
1.999998E-2	-2.115710E-6
2.999997E-2	-2.094850E-6
3.999999E-2	-2.070730E-6
4.999998E-2	-2.045020E-6
5.999997E-2	-2.026150E-6
6.999999E-2	-2.001740E-6
7.999998E-2	-1.981030E-6
8.999997E-2	-1.956340E-6
9.999996E-2	-1.926770E-6
1.100000E-1	-1.899620E-6
1.200000E-1	-1.872730E-6
1.300000E-1	-1.847500E-6
1.400000E-1	-1.824110E-6
1.500000E-1	-1.799210E-6
1.600000E-1	-1.774800E-6
1.700000E-1	-1.755490E-6
1.800000E-1	-1.731860E-6
1.900000E-1	-1.706370E-6
2.000000E-1	-1.679330E-6
2.100000E-1	-1.649960E-6
2.200000E-1	-1.618910E-6
2.300000E-1	-1.594470E-6
2.399999E-1	-1.570950E-6
2.500000E-1	-1.547560E-6
2.600000E-1	-1.523740E-6
2.700000E-1	-1.500090E-6
2.800000E-1	-1.475230E-6
2.900000E-1	-1.450600E-6
3.000000E-1	-1.421520E-6
3.100000E-1	-1.392100E-6
3.200000E-1	-1.363470E-6
3.300000E-1	-1.336790E-6
3.400000E-1	-1.307950E-6
3.500000E-1	-1.278460E-6
3.600000E-1	-1.253250E-6
3.699999E-1	-1.226530E-6
3.800000E-1	-1.200250E-6
3.900000E-1	-1.172080E-6
4.000000E-1	-1.141050E-6
4.100000E-1	-1.111040E-6
4.200000E-1	-1.082090E-6
4.299999E-1	-1.050410E-6
4.400000E-1	-1.019430E-6
4.500000E-1	-9.910550E-7
4.600000E-1	-9.577550E-7
4.700000E-1	-9.230450E-7
4.800000E-1	-8.918280E-7
4.899999E-1	-8.585380E-7
4.999999E-1	-8.243590E-7
5.100000E-1	-7.900000E-7
5.200000E-1	-7.550540E-7
5.300000E-1	-7.193900E-7
5.400000E-1	-6.822180E-7
5.500000E-1	-6.425700E-7
5.599999E-1	-6.012490E-7
5.700000E-1	-5.597850E-7
5.800000E-1	-5.146110E-7
5.900000E-1	-4.679570E-7
6.000000E-1	-4.196900E-7
6.100000E-1	-3.695930E-7
6.199999E-1	-3.158450E-7
6.300000E-1	-2.613860E-7
6.400000E-1	-2.023350E-7
6.500000E-1	-1.401960E-7
6.600000E-1	-6.324510E-8
6.700000E-1	-4.785370E-9
6.799999E-1	6.395910E-8
6.899999E-1	1.530500E-7
7.000000E-1	2.375400E-7
7.100000E-1	3.294990E-7
7.200000E-1	4.288270E-7
7.300000E-1	5.349450E-7
7.399999E-1	6.489090E-7
7.499999E-1	7.700910E-7
7.599999E-1	9.004110E-7
7.699999E-1	1.040000E-6
7.799999E-1	1.189230E-6
7.900000E-1	1.348970E-6
8.000000E-1	1.519370E-6
8.100000E-1	1.701980E-6
8.200000E-1	1.896800E-6
8.300000E-1	2.105720E-6
8.400000E-1	2.327030E-6
8.500000E-1	2.563020E-6
8.600000E-1	2.814550E-6
8.699999E-1	3.083260E-6
8.799999E-1	3.368520E-6
8.899999E-1	3.672800E-6
8.999999E-1	3.996520E-6
9.099999E-1	4.341400E-6
9.200000E-1	4.709160E-6
9.300000E-1	5.103110E-6
9.400000E-1	5.517860E-6
9.500000E-1	5.957680E-6
9.600000E-1	6.425360E-6
9.700000E-1	6.921190E-6
9.800000E-1	7.448010E-6
9.899999E-1	8.005670E-6
9.999999E-1	8.598610E-6
