Voltage [V]	Current [A]
-2.000000E-1	-9.883160E-4
-1.950000E-1	-9.633000E-4
-1.900000E-1	-9.392590E-4
-1.850000E-1	-9.144500E-4
-1.800000E-1	-8.904560E-4
-1.750000E-1	-8.665550E-4
-1.700000E-1	-8.422780E-4
-1.650000E-1	-8.181170E-4
-1.600000E-1	-7.937060E-4
-1.550000E-1	-7.696260E-4
-1.500000E-1	-7.452300E-4
-1.450000E-1	-7.211950E-4
-1.400000E-1	-6.967350E-4
-1.350000E-1	-6.729410E-4
-1.300000E-1	-6.485230E-4
-1.250000E-1	-6.243430E-4
-1.200000E-1	-6.003150E-4
-1.150000E-1	-5.761460E-4
-1.100000E-1	-5.521150E-4
-1.050000E-1	-5.279900E-4
-1.000000E-1	-5.034620E-4
-9.500001E-2	-4.793240E-4
-9.000000E-2	-4.549680E-4
-8.500001E-2	-4.308070E-4
-8.000001E-2	-4.066320E-4
-7.500000E-2	-3.824650E-4
-7.000001E-2	-3.584760E-4
-6.500001E-2	-3.342110E-4
-6.000000E-2	-3.100870E-4
-5.500001E-2	-2.859880E-4
-5.000001E-2	-2.620680E-4
-4.500000E-2	-2.379490E-4
-4.000001E-2	-2.137070E-4
-3.500001E-2	-1.896010E-4
-3.000000E-2	-1.654370E-4
-2.500001E-2	-1.413480E-4
-2.000001E-2	-1.171770E-4
-1.500000E-2	-9.306640E-5
-1.000001E-2	-6.900710E-5
-5.000010E-3	-4.489760E-5
-1.490116E-8	-2.081840E-5
4.999995E-3	3.054560E-6
9.999990E-3	2.715030E-5
1.499999E-2	5.123560E-5
2.000000E-2	7.525390E-5
2.499999E-2	9.931930E-5
2.999999E-2	1.234140E-4
3.500000E-2	1.474420E-4
3.999999E-2	1.714330E-4
4.499999E-2	1.955850E-4
5.000000E-2	2.195200E-4
5.499999E-2	2.436080E-4
5.999999E-2	2.677840E-4
6.499998E-2	2.920550E-4
6.999998E-2	3.159570E-4
7.500000E-2	3.401190E-4
8.000000E-2	3.642260E-4
8.499999E-2	3.880520E-4
8.999999E-2	4.121660E-4
9.499998E-2	4.363270E-4
9.999998E-2	4.598290E-4
1.050000E-1	4.843050E-4
1.100000E-1	5.081130E-4
1.150000E-1	5.323030E-4
1.200000E-1	5.562340E-4
1.250000E-1	5.805410E-4
1.300000E-1	6.045400E-4
1.350000E-1	6.283010E-4
1.400000E-1	6.525700E-4
1.450000E-1	6.770430E-4
1.500000E-1	7.006130E-4
1.550000E-1	7.245800E-4
1.600000E-1	7.483980E-4
1.650000E-1	7.724920E-4
1.700000E-1	7.973650E-4
1.750000E-1	8.210280E-4
1.800000E-1	8.455180E-4
1.850000E-1	8.682190E-4
1.900000E-1	8.921140E-4
1.950000E-1	9.165850E-4
2.000000E-1	9.404950E-4
2.050000E-1	9.648570E-4
2.100000E-1	9.901670E-4
2.150000E-1	1.015790E-3
2.200000E-1	1.039770E-3
2.250000E-1	1.064720E-3
2.300000E-1	1.088060E-3
2.350000E-1	1.111440E-3
2.400000E-1	1.135810E-3
2.450000E-1	1.160260E-3
2.500000E-1	1.183550E-3
2.550000E-1	1.208190E-3
2.600000E-1	1.231260E-3
2.650000E-1	1.255730E-3
2.700000E-1	1.280660E-3
2.750000E-1	1.305240E-3
2.800000E-1	1.329570E-3
2.850000E-1	1.353790E-3
2.900000E-1	1.378170E-3
2.950000E-1	1.401760E-3
3.000000E-1	1.426550E-3
3.050000E-1	1.450110E-3
3.100000E-1	1.473900E-3
3.150000E-1	1.499610E-3
3.200000E-1	1.523020E-3
3.250000E-1	1.546010E-3
3.300000E-1	1.571580E-3
3.350000E-1	1.595090E-3
3.400000E-1	1.620320E-3
3.450000E-1	1.644600E-3
3.500000E-1	1.668160E-3
3.550000E-1	1.692680E-3
3.600000E-1	1.716660E-3
3.650000E-1	1.739720E-3
3.700000E-1	1.764390E-3
3.750000E-1	1.790100E-3
3.800000E-1	1.813710E-3
3.850000E-1	1.838420E-3
3.900000E-1	1.863430E-3
3.950000E-1	1.887550E-3
4.000000E-1	1.911690E-3
4.050000E-1	1.935850E-3
4.100000E-1	1.959740E-3
4.150000E-1	1.984540E-3
4.200000E-1	2.007530E-3
4.250000E-1	2.033110E-3
4.300000E-1	2.057740E-3
4.350000E-1	2.081250E-3
4.400000E-1	2.106060E-3
4.450000E-1	2.131660E-3
4.500000E-1	2.154470E-3
4.550000E-1	2.179520E-3
4.600000E-1	2.201570E-3
4.650000E-1	2.225970E-3
4.700000E-1	2.250810E-3
4.750000E-1	2.275870E-3
4.800000E-1	2.300600E-3
4.850000E-1	2.324140E-3
4.900000E-1	2.347380E-3
4.950000E-1	2.371540E-3
5.000000E-1	2.396400E-3
5.050000E-1	2.420160E-3
5.100000E-1	2.444440E-3
5.150000E-1	2.465830E-3
5.200000E-1	2.490620E-3
5.250000E-1	2.514840E-3
5.300000E-1	2.540240E-3
5.350000E-1	2.564260E-3
5.400000E-1	2.591010E-3
5.450000E-1	2.616110E-3
5.500000E-1	2.638130E-3
5.550000E-1	2.662390E-3
5.600000E-1	2.686540E-3
5.650000E-1	2.710440E-3
5.700000E-1	2.734030E-3
5.750000E-1	2.757720E-3
5.800000E-1	2.781380E-3
5.850000E-1	2.807370E-3
5.900000E-1	2.829870E-3
5.950000E-1	2.852040E-3
6.000000E-1	2.874900E-3
6.050000E-1	2.899670E-3
6.100000E-1	2.921800E-3
6.150000E-1	2.946090E-3
6.200000E-1	2.970860E-3
6.250000E-1	2.993970E-3
6.300000E-1	3.020630E-3
6.350000E-1	3.040830E-3
6.400000E-1	3.063570E-3
6.450000E-1	3.089370E-3
6.500000E-1	3.113280E-3
6.550000E-1	3.138570E-3
6.600000E-1	3.162660E-3
6.650000E-1	3.187360E-3
6.700000E-1	3.211790E-3
6.750000E-1	3.235590E-3
6.800000E-1	3.258770E-3
6.850000E-1	3.282090E-3
6.900000E-1	3.306230E-3
6.950000E-1	3.329630E-3
7.000000E-1	3.352910E-3
7.050000E-1	3.377290E-3
7.100000E-1	3.401860E-3
7.150000E-1	3.426820E-3
7.200000E-1	3.453080E-3
7.250000E-1	3.478700E-3
7.300000E-1	3.503590E-3
7.350000E-1	3.525770E-3
7.400000E-1	3.546350E-3
7.450000E-1	3.566930E-3
7.500000E-1	3.590390E-3
7.550000E-1	3.616510E-3
7.600000E-1	3.638860E-3
7.650000E-1	3.661840E-3
7.700000E-1	3.684400E-3
7.750000E-1	3.705360E-3
7.800000E-1	3.728850E-3
7.850000E-1	3.747840E-3
7.900000E-1	3.772970E-3
7.950000E-1	3.795190E-3
8.000000E-1	3.818830E-3
