Voltage [V]	Current [A]
-3.000000E-1	-4.196170E-5
-2.900000E-1	-4.154280E-5
-2.800000E-1	-4.110870E-5
-2.700000E-1	-4.077550E-5
-2.600000E-1	-4.033500E-5
-2.500000E-1	-3.999360E-5
-2.400000E-1	-3.963450E-5
-2.300000E-1	-3.918670E-5
-2.200000E-1	-3.891590E-5
-2.100000E-1	-3.854510E-5
-2.000000E-1	-3.825210E-5
-1.900000E-1	-3.782190E-5
-1.800000E-1	-3.753550E-5
-1.700000E-1	-3.720580E-5
-1.600000E-1	-3.673840E-5
-1.500000E-1	-3.642770E-5
-1.400000E-1	-3.602040E-5
-1.300000E-1	-3.572450E-5
-1.200000E-1	-3.536480E-5
-1.100000E-1	-3.505360E-5
-1.000000E-1	-3.467900E-5
-9.000002E-2	-3.429000E-5
-8.000001E-2	-3.401930E-5
-7.000002E-2	-3.363830E-5
-6.000002E-2	-3.336770E-5
-5.000001E-2	-3.296380E-5
-4.000002E-2	-3.257180E-5
-3.000003E-2	-3.226660E-5
-2.000001E-2	-3.186450E-5
-1.000002E-2	-3.151100E-5
-2.980232E-8	-3.110060E-5
9.999990E-3	-3.077610E-5
1.999998E-2	-3.043820E-5
2.999997E-2	-3.007320E-5
3.999999E-2	-2.967910E-5
4.999998E-2	-2.929440E-5
5.999997E-2	-2.897170E-5
6.999999E-2	-2.860130E-5
7.999998E-2	-2.827130E-5
8.999997E-2	-2.793340E-5
9.999996E-2	-2.754610E-5
1.100000E-1	-2.715980E-5
1.200000E-1	-2.677870E-5
1.300000E-1	-2.643880E-5
1.400000E-1	-2.607840E-5
1.500000E-1	-2.567910E-5
1.600000E-1	-2.531650E-5
1.700000E-1	-2.494680E-5
1.800000E-1	-2.458300E-5
1.900000E-1	-2.420710E-5
2.000000E-1	-2.381740E-5
2.100000E-1	-2.349030E-5
2.200000E-1	-2.310060E-5
2.300000E-1	-2.270430E-5
2.399999E-1	-2.234340E-5
2.500000E-1	-2.193990E-5
2.600000E-1	-2.153140E-5
2.700000E-1	-2.112840E-5
2.800000E-1	-2.076130E-5
2.900000E-1	-2.041960E-5
3.000000E-1	-2.004560E-5
3.100000E-1	-1.964390E-5
3.200000E-1	-1.924670E-5
3.300000E-1	-1.886070E-5
3.400000E-1	-1.846870E-5
3.500000E-1	-1.810550E-5
3.600000E-1	-1.771470E-5
3.699999E-1	-1.733880E-5
3.800000E-1	-1.696280E-5
3.900000E-1	-1.656480E-5
4.000000E-1	-1.614160E-5
4.100000E-1	-1.576170E-5
4.200000E-1	-1.532120E-5
4.299999E-1	-1.489690E-5
4.400000E-1	-1.450980E-5
4.500000E-1	-1.409700E-5
4.600000E-1	-1.370840E-5
4.700000E-1	-1.329700E-5
4.800000E-1	-1.290400E-5
4.899999E-1	-1.247930E-5
4.999999E-1	-1.206650E-5
5.100000E-1	-1.163170E-5
5.200000E-1	-1.118580E-5
5.300000E-1	-1.075920E-5
5.400000E-1	-1.033690E-5
5.500000E-1	-9.906760E-6
5.599999E-1	-9.448970E-6
5.700000E-1	-8.993520E-6
5.800000E-1	-8.551960E-6
5.900000E-1	-8.094250E-6
6.000000E-1	-7.622650E-6
6.100000E-1	-7.155800E-6
6.199999E-1	-6.672720E-6
6.300000E-1	-6.196460E-6
6.400000E-1	-5.700850E-6
6.500000E-1	-5.194380E-6
6.600000E-1	-4.683590E-6
6.700000E-1	-4.167640E-6
6.799999E-1	-3.643180E-6
6.899999E-1	-3.104570E-6
7.000000E-1	-2.564810E-6
7.100000E-1	-2.018240E-6
7.200000E-1	-1.457750E-6
7.300000E-1	-8.992570E-7
7.399999E-1	-3.268060E-7
7.499999E-1	2.484310E-7
7.599999E-1	8.307020E-7
7.699999E-1	1.412230E-6
7.799999E-1	2.002640E-6
7.900000E-1	2.598740E-6
8.000000E-1	3.196380E-6
8.100000E-1	3.798980E-6
8.200000E-1	4.401790E-6
8.300000E-1	5.017730E-6
8.400000E-1	5.630180E-6
8.500000E-1	6.257200E-6
8.600000E-1	6.892360E-6
8.699999E-1	7.529590E-6
8.799999E-1	8.184110E-6
8.899999E-1	8.838840E-6
8.999999E-1	9.507090E-6
9.099999E-1	1.020820E-5
9.200000E-1	1.091380E-5
9.300000E-1	1.164470E-5
9.400000E-1	1.239230E-5
9.500000E-1	1.315180E-5
9.600000E-1	1.395690E-5
9.700000E-1	1.476000E-5
9.800000E-1	1.561780E-5
9.899999E-1	1.649850E-5
9.999999E-1	1.741240E-5
