Voltage [V]	Current [A]
-3.000000E-1	-1.926000E-5
-2.900000E-1	-1.908570E-5
-2.800000E-1	-1.890700E-5
-2.700000E-1	-1.874470E-5
-2.600000E-1	-1.856440E-5
-2.500000E-1	-1.840910E-5
-2.400000E-1	-1.824620E-5
-2.300000E-1	-1.806140E-5
-2.200000E-1	-1.790210E-5
-2.100000E-1	-1.774070E-5
-2.000000E-1	-1.759600E-5
-1.900000E-1	-1.741710E-5
-1.800000E-1	-1.724240E-5
-1.700000E-1	-1.707020E-5
-1.600000E-1	-1.690800E-5
-1.500000E-1	-1.676740E-5
-1.400000E-1	-1.659760E-5
-1.300000E-1	-1.645460E-5
-1.200000E-1	-1.629710E-5
-1.100000E-1	-1.612890E-5
-1.000000E-1	-1.594950E-5
-9.000002E-2	-1.576090E-5
-8.000001E-2	-1.560700E-5
-7.000002E-2	-1.544680E-5
-6.000002E-2	-1.525780E-5
-5.000001E-2	-1.507630E-5
-4.000002E-2	-1.495270E-5
-3.000003E-2	-1.475390E-5
-2.000001E-2	-1.459110E-5
-1.000002E-2	-1.443080E-5
-2.980232E-8	-1.422690E-5
9.999990E-3	-1.409740E-5
1.999998E-2	-1.392300E-5
2.999997E-2	-1.377930E-5
3.999999E-2	-1.361720E-5
4.999998E-2	-1.342560E-5
5.999997E-2	-1.323180E-5
6.999999E-2	-1.304940E-5
7.999998E-2	-1.287280E-5
8.999997E-2	-1.270950E-5
9.999996E-2	-1.257680E-5
1.100000E-1	-1.240650E-5
1.200000E-1	-1.223500E-5
1.300000E-1	-1.206500E-5
1.400000E-1	-1.186440E-5
1.500000E-1	-1.168470E-5
1.600000E-1	-1.149910E-5
1.700000E-1	-1.132360E-5
1.800000E-1	-1.117040E-5
1.900000E-1	-1.097490E-5
2.000000E-1	-1.080130E-5
2.100000E-1	-1.059650E-5
2.200000E-1	-1.042420E-5
2.300000E-1	-1.025610E-5
2.399999E-1	-1.006510E-5
2.500000E-1	-9.901140E-6
2.600000E-1	-9.734340E-6
2.700000E-1	-9.547500E-6
2.800000E-1	-9.361930E-6
2.900000E-1	-9.194180E-6
3.000000E-1	-8.996450E-6
3.100000E-1	-8.802560E-6
3.200000E-1	-8.629000E-6
3.300000E-1	-8.433020E-6
3.400000E-1	-8.269960E-6
3.500000E-1	-8.060100E-6
3.600000E-1	-7.874030E-6
3.699999E-1	-7.673430E-6
3.800000E-1	-7.473260E-6
3.900000E-1	-7.286050E-6
4.000000E-1	-7.085010E-6
4.100000E-1	-6.884740E-6
4.200000E-1	-6.690390E-6
4.299999E-1	-6.494170E-6
4.400000E-1	-6.312430E-6
4.500000E-1	-6.123040E-6
4.600000E-1	-5.913900E-6
4.700000E-1	-5.698000E-6
4.800000E-1	-5.494220E-6
4.899999E-1	-5.286420E-6
4.999999E-1	-5.070930E-6
5.100000E-1	-4.857350E-6
5.200000E-1	-4.636800E-6
5.300000E-1	-4.419380E-6
5.400000E-1	-4.191560E-6
5.500000E-1	-3.975930E-6
5.599999E-1	-3.737540E-6
5.700000E-1	-3.506600E-6
5.800000E-1	-3.270470E-6
5.900000E-1	-3.027410E-6
6.000000E-1	-2.780570E-6
6.100000E-1	-2.530880E-6
6.199999E-1	-2.277760E-6
6.300000E-1	-2.018950E-6
6.400000E-1	-1.750970E-6
6.500000E-1	-1.480180E-6
6.600000E-1	-1.207640E-6
6.700000E-1	-9.339540E-7
6.799999E-1	-6.497150E-7
6.899999E-1	-3.613000E-7
7.000000E-1	-6.666880E-8
7.100000E-1	2.195320E-7
7.200000E-1	5.181210E-7
7.300000E-1	8.229510E-7
7.399999E-1	1.127560E-6
7.499999E-1	1.440080E-6
7.599999E-1	1.756480E-6
7.699999E-1	2.076860E-6
7.799999E-1	2.398470E-6
7.900000E-1	2.726400E-6
8.000000E-1	3.059990E-6
8.100000E-1	3.399250E-6
8.200000E-1	3.741310E-6
8.300000E-1	4.094480E-6
8.400000E-1	4.456810E-6
8.500000E-1	4.827680E-6
8.600000E-1	5.209970E-6
8.699999E-1	5.602160E-6
8.799999E-1	6.003010E-6
8.899999E-1	6.421190E-6
8.999999E-1	6.849340E-6
9.099999E-1	7.297870E-6
9.200000E-1	7.762710E-6
9.300000E-1	8.253000E-6
9.400000E-1	8.759130E-6
9.500000E-1	9.295480E-6
9.600000E-1	9.848000E-6
9.700000E-1	1.042710E-5
9.800000E-1	1.103820E-5
9.899999E-1	1.168260E-5
9.999999E-1	1.233190E-5
