Voltage [V]	Current [A]
-3.000000E-1	-3.072510E-6
-2.900000E-1	-3.034340E-6
-2.800000E-1	-2.999150E-6
-2.700000E-1	-2.967520E-6
-2.600000E-1	-2.940950E-6
-2.500000E-1	-2.908630E-6
-2.400000E-1	-2.884770E-6
-2.300000E-1	-2.852610E-6
-2.200000E-1	-2.829600E-6
-2.100000E-1	-2.803920E-6
-2.000000E-1	-2.778500E-6
-1.900000E-1	-2.756450E-6
-1.800000E-1	-2.726980E-6
-1.700000E-1	-2.703140E-6
-1.600000E-1	-2.678140E-6
-1.500000E-1	-2.651730E-6
-1.400000E-1	-2.625000E-6
-1.300000E-1	-2.603160E-6
-1.200000E-1	-2.581760E-6
-1.100000E-1	-2.555500E-6
-1.000000E-1	-2.528920E-6
-9.000002E-2	-2.503620E-6
-8.000001E-2	-2.480610E-6
-7.000002E-2	-2.456320E-6
-6.000002E-2	-2.426940E-6
-5.000001E-2	-2.403150E-6
-4.000002E-2	-2.373470E-6
-3.000003E-2	-2.349100E-6
-2.000001E-2	-2.322880E-6
-1.000002E-2	-2.298050E-6
-2.980232E-8	-2.272080E-6
9.999990E-3	-2.248450E-6
1.999998E-2	-2.229250E-6
2.999997E-2	-2.207430E-6
3.999999E-2	-2.180260E-6
4.999998E-2	-2.149960E-6
5.999997E-2	-2.119340E-6
6.999999E-2	-2.092180E-6
7.999998E-2	-2.064790E-6
8.999997E-2	-2.042110E-6
9.999996E-2	-2.013610E-6
1.100000E-1	-1.990730E-6
1.200000E-1	-1.968650E-6
1.300000E-1	-1.939100E-6
1.400000E-1	-1.913780E-6
1.500000E-1	-1.885290E-6
1.600000E-1	-1.860390E-6
1.700000E-1	-1.834380E-6
1.800000E-1	-1.807230E-6
1.900000E-1	-1.784840E-6
2.000000E-1	-1.754050E-6
2.100000E-1	-1.727260E-6
2.200000E-1	-1.699780E-6
2.300000E-1	-1.670720E-6
2.399999E-1	-1.643790E-6
2.500000E-1	-1.617570E-6
2.600000E-1	-1.586860E-6
2.700000E-1	-1.556420E-6
2.800000E-1	-1.530280E-6
2.900000E-1	-1.502200E-6
3.000000E-1	-1.473770E-6
3.100000E-1	-1.446500E-6
3.200000E-1	-1.416100E-6
3.300000E-1	-1.389090E-6
3.400000E-1	-1.358580E-6
3.500000E-1	-1.329340E-6
3.600000E-1	-1.299610E-6
3.699999E-1	-1.268330E-6
3.800000E-1	-1.240610E-6
3.900000E-1	-1.210380E-6
4.000000E-1	-1.180420E-6
4.100000E-1	-1.148010E-6
4.200000E-1	-1.118140E-6
4.299999E-1	-1.084270E-6
4.400000E-1	-1.050680E-6
4.500000E-1	-1.017600E-6
4.600000E-1	-9.866670E-7
4.700000E-1	-9.500470E-7
4.800000E-1	-9.145330E-7
4.899999E-1	-8.818380E-7
4.999999E-1	-8.448030E-7
5.100000E-1	-8.073360E-7
5.200000E-1	-7.706310E-7
5.300000E-1	-7.314520E-7
5.400000E-1	-6.915670E-7
5.500000E-1	-6.495450E-7
5.599999E-1	-6.076940E-7
5.700000E-1	-5.649120E-7
5.800000E-1	-5.199320E-7
5.900000E-1	-4.728270E-7
6.000000E-1	-4.230290E-7
6.100000E-1	-3.709730E-7
6.199999E-1	-3.174700E-7
6.300000E-1	-2.596340E-7
6.400000E-1	-2.011770E-7
6.500000E-1	-1.375960E-7
6.600000E-1	-6.295840E-8
6.700000E-1	-9.715560E-10
6.799999E-1	6.841590E-8
6.899999E-1	1.552340E-7
7.000000E-1	2.388560E-7
7.100000E-1	3.284910E-7
7.200000E-1	4.243380E-7
7.300000E-1	5.262410E-7
7.399999E-1	6.346480E-7
7.499999E-1	7.497870E-7
7.599999E-1	8.720990E-7
7.699999E-1	1.001510E-6
7.799999E-1	1.139160E-6
7.900000E-1	1.286540E-6
8.000000E-1	1.441710E-6
8.100000E-1	1.607560E-6
8.200000E-1	1.783740E-6
8.300000E-1	1.971450E-6
8.400000E-1	2.170520E-6
8.500000E-1	2.382190E-6
8.600000E-1	2.607770E-6
8.699999E-1	2.847960E-6
8.799999E-1	3.102660E-6
8.899999E-1	3.374480E-6
8.999999E-1	3.663290E-6
9.099999E-1	3.971380E-6
9.200000E-1	4.298350E-6
9.300000E-1	4.647580E-6
9.400000E-1	5.019030E-6
9.500000E-1	5.415200E-6
9.600000E-1	5.837610E-6
9.700000E-1	6.284410E-6
9.800000E-1	6.760190E-6
9.899999E-1	7.268010E-6
9.999999E-1	7.802530E-6
