Voltage [V]	Current [A]
-2.000000E-1	-1.137640E-1
-1.950000E-1	-1.136110E-1
-1.900000E-1	-1.134860E-1
-1.850000E-1	-1.136160E-1
-1.800000E-1	-1.136290E-1
-1.750000E-1	-1.135210E-1
-1.700000E-1	-1.135430E-1
-1.650000E-1	-1.136500E-1
-1.600000E-1	-1.136430E-1
-1.550000E-1	-1.135900E-1
-1.500000E-1	-1.135230E-1
-1.450000E-1	-1.136020E-1
-1.400000E-1	-1.138120E-1
-1.350000E-1	-1.134930E-1
-1.300000E-1	-1.134340E-1
-1.250000E-1	-1.136950E-1
-1.200000E-1	-1.136600E-1
-1.150000E-1	-1.137140E-1
-1.100000E-1	-1.137910E-1
-1.050000E-1	-1.136430E-1
-1.000000E-1	-1.135750E-1
-9.500001E-2	-1.135550E-1
-9.000000E-2	-1.136050E-1
-8.500001E-2	-1.135490E-1
-8.000001E-2	-1.134120E-1
-7.500000E-2	-1.134890E-1
-7.000001E-2	-1.134230E-1
-6.500001E-2	-1.135930E-1
-6.000000E-2	-1.137680E-1
-5.500001E-2	-1.135960E-1
-5.000001E-2	-1.137030E-1
-4.500000E-2	-1.137010E-1
-4.000001E-2	-1.135930E-1
-3.500001E-2	-1.138040E-1
-3.000000E-2	-1.137780E-1
-2.500001E-2	-1.139040E-1
-2.000001E-2	-1.137410E-1
-1.500000E-2	-1.135470E-1
-1.000001E-2	-1.135560E-1
-5.000010E-3	-1.134270E-1
-1.490116E-8	-1.135450E-1
4.999995E-3	-1.137280E-1
9.999990E-3	-1.135100E-1
1.499999E-2	-1.136100E-1
2.000000E-2	-1.135290E-1
2.499999E-2	-1.135170E-1
2.999999E-2	-1.135510E-1
3.500000E-2	-1.134630E-1
3.999999E-2	-1.135180E-1
4.499999E-2	-1.135980E-1
5.000000E-2	-1.136220E-1
5.499999E-2	-1.135790E-1
5.999999E-2	-1.134510E-1
6.499998E-2	-1.135870E-1
6.999998E-2	-1.135530E-1
7.500000E-2	-1.137480E-1
8.000000E-2	-1.137660E-1
8.499999E-2	-1.136680E-1
8.999999E-2	-1.136300E-1
9.499998E-2	-1.135600E-1
9.999998E-2	-1.135810E-1
1.050000E-1	-1.136880E-1
1.100000E-1	-1.135490E-1
1.150000E-1	-1.135740E-1
1.200000E-1	-1.134900E-1
1.250000E-1	-1.135300E-1
1.300000E-1	-1.136020E-1
1.350000E-1	-1.135310E-1
1.400000E-1	-1.134450E-1
1.450000E-1	-1.133730E-1
1.500000E-1	-1.134170E-1
1.550000E-1	-1.135910E-1
1.600000E-1	-1.134660E-1
1.650000E-1	-1.135700E-1
1.700000E-1	-1.134280E-1
1.750000E-1	-1.133440E-1
1.800000E-1	-1.131480E-1
1.850000E-1	-1.132740E-1
1.900000E-1	-1.134870E-1
1.950000E-1	-1.132750E-1
2.000000E-1	-1.135040E-1
2.050000E-1	-1.135050E-1
2.100000E-1	-1.133050E-1
2.150000E-1	-1.133610E-1
2.200000E-1	-1.132180E-1
2.250000E-1	-1.132220E-1
2.300000E-1	-1.134820E-1
2.350000E-1	-1.134590E-1
2.400000E-1	-1.134750E-1
2.450000E-1	-1.132920E-1
2.500000E-1	-1.132790E-1
2.550000E-1	-1.131910E-1
2.600000E-1	-1.133140E-1
2.650000E-1	-1.131200E-1
2.700000E-1	-1.129630E-1
2.750000E-1	-1.132040E-1
2.800000E-1	-1.131410E-1
2.850000E-1	-1.131780E-1
2.900000E-1	-1.130430E-1
2.950000E-1	-1.130270E-1
3.000000E-1	-1.128860E-1
3.050000E-1	-1.130220E-1
3.100000E-1	-1.128500E-1
3.150000E-1	-1.127350E-1
3.200000E-1	-1.127140E-1
3.250000E-1	-1.128260E-1
3.300000E-1	-1.126660E-1
3.350000E-1	-1.125540E-1
3.400000E-1	-1.124350E-1
3.450000E-1	-1.121810E-1
3.500000E-1	-1.120880E-1
3.550000E-1	-1.119200E-1
3.600000E-1	-1.119280E-1
3.650000E-1	-1.115880E-1
3.700000E-1	-1.113920E-1
3.750000E-1	-1.110970E-1
3.800000E-1	-1.108520E-1
3.850000E-1	-1.104610E-1
3.900000E-1	-1.101520E-1
3.950000E-1	-1.096610E-1
4.000000E-1	-1.091640E-1
4.050000E-1	-1.087520E-1
4.100000E-1	-1.080640E-1
4.150000E-1	-1.072810E-1
4.200000E-1	-1.066750E-1
4.250000E-1	-1.056220E-1
4.300000E-1	-1.046290E-1
4.350000E-1	-1.034020E-1
4.400000E-1	-1.022070E-1
4.450000E-1	-1.009110E-1
4.500000E-1	-9.923610E-2
4.550000E-1	-9.732630E-2
4.600000E-1	-9.542600E-2
4.650000E-1	-9.339370E-2
4.700000E-1	-9.131280E-2
4.750000E-1	-8.893810E-2
4.800000E-1	-8.634100E-2
4.850000E-1	-8.377740E-2
4.900000E-1	-8.102340E-2
4.950000E-1	-7.798380E-2
5.000000E-1	-7.481450E-2
5.050000E-1	-7.167390E-2
5.100000E-1	-6.817390E-2
5.150000E-1	-6.473680E-2
5.200000E-1	-6.110080E-2
5.250000E-1	-5.742860E-2
5.300000E-1	-5.356420E-2
5.350000E-1	-4.968340E-2
5.400000E-1	-4.562760E-2
5.450000E-1	-4.147390E-2
5.500000E-1	-3.728570E-2
5.550000E-1	-3.299220E-2
5.600000E-1	-2.863030E-2
5.650000E-1	-2.418520E-2
5.700000E-1	-1.967600E-2
5.750000E-1	-1.507820E-2
5.800000E-1	-1.050630E-2
5.850000E-1	-5.806540E-3
5.900000E-1	-1.039670E-3
5.950000E-1	3.719210E-3
6.000000E-1	8.574630E-3
6.050000E-1	1.345180E-2
6.100000E-1	1.837100E-2
6.150000E-1	2.335510E-2
6.200000E-1	2.839160E-2
6.250000E-1	3.342970E-2
6.300000E-1	3.854040E-2
6.350000E-1	4.364030E-2
6.400000E-1	4.875290E-2
6.450000E-1	5.391530E-2
6.500000E-1	5.915440E-2
6.550000E-1	6.440250E-2
6.600000E-1	6.967160E-2
6.650000E-1	7.496750E-2
6.700000E-1	8.030830E-2
6.750000E-1	8.565070E-2
6.800000E-1	9.103650E-2
6.850000E-1	9.642250E-2
6.900000E-1	1.016290E-1
6.950000E-1	1.070820E-1
7.000000E-1	1.125830E-1
